Wavelength [nm],Background nominal [29 yrs],Modulation nominal [400% 29 yrs],Background validated [32 yrs],Modulation validated [400% 32 yrs]
380,1.9443e-05,2.7897e-05,2.0421e-05,2.4886e-05
382,1.8552e-05,3.6281e-05,1.9536e-05,2.471e-05
384,2.4836e-05,3.0058e-05,2.0985e-05,2.4793e-05
386,2.232e-05,3.0036e-05,1.9189e-05,2.6693e-05
388,1.8335e-05,2.9344e-05,1.8488e-05,2.5417e-05
390,1.9773e-05,2.8215e-05,1.881e-05,2.556e-05
392,1.8822e-05,2.4092e-05,1.8137e-05,2.4914e-05
394,1.6888e-05,2.615e-05,1.7805e-05,2.5995e-05
396,1.5707e-05,2.9174e-05,1.6943e-05,2.7256e-05
398,1.5669e-05,2.4246e-05,1.9468e-05,2.6534e-05
400,1.6585e-05,2.315e-05,2.0869e-05,2.8855e-05
402,1.6217e-05,2.0561e-05,2.8113e-05,3.609e-05
404,1.7118e-05,2.3304e-05,3.8846e-05,4.5018e-05
406,1.7706e-05,2.1323e-05,5.119e-05,5.4704e-05
408,2.1763e-05,2.5381e-05,6.254e-05,6.4762e-05
410,2.5198e-05,2.552e-05,8.205e-05,7.6732e-05
412,4.3346e-05,3.5151e-05,0.0001025,8.8852e-05
414,8.3966e-05,5.4987e-05,0.00013095,0.00010164
416,0.00015077,8.7292e-05,0.00017622,0.00011802
418,0.000263,0.00013634,0.00025994,0.0001488
420,0.00040845,0.00019795,0.00037696,0.00019361
422,0.00057045,0.00025595,0.0005113,0.00024014
424,0.00073326,0.00030704,0.00065278,0.00028148
426,0.00090084,0.00035156,0.0008049,0.00031916
428,0.0010412,0.00038243,0.0009411,0.00034938
430,0.0011033,0.00038355,0.0010263,0.0003631
432,0.0010765,0.0003546,0.0010304,0.0003424
434,0.00096414,0.00028793,0.00094742,0.00028284
436,0.00080271,0.00020286,0.0008016,0.00019909
438,0.00063126,0.00013369,0.00063332,0.00012311
440,0.00046196,9.5668e-05,0.0004653,7.6156e-05
442,0.00031553,8.2828e-05,0.00031236,5.9884e-05
444,0.00021478,8.3997e-05,0.00020965,5.9446e-05
446,0.00016625,9.0767e-05,0.00015456,6.0708e-05
448,0.00015683,9.6913e-05,0.00013992,6.442e-05
450,0.00016362,0.00010872,0.00014458,7.0074e-05
452,0.00017005,0.00011617,0.00015003,7.3884e-05
454,0.00016898,0.00012204,0.00015282,7.6896e-05
456,0.00017189,0.00013809,0.0001568,8.506e-05
458,0.0001757,0.00015308,0.00016329,9.5956e-05
460,0.00018011,0.00017354,0.00016774,0.00010998
462,0.00018309,0.00019971,0.00016961,0.00012797
464,0.00018231,0.00022905,0.00016927,0.00014927
466,0.00018377,0.00026306,0.00017083,0.00017939
468,0.00018622,0.00030166,0.00016864,0.00021362
470,0.00018071,0.00032038,0.00015865,0.00023752
472,0.0001715,0.00033557,0.00014487,0.0002562
474,0.00016262,0.00034306,0.0001338,0.00026974
476,0.00015363,0.00033538,0.00012266,0.00027112
478,0.0001512,0.00033932,0.00011729,0.00027458
480,0.00015259,0.00035512,0.00012002,0.00029254
482,0.00016089,0.00038507,0.00012458,0.0003146
484,0.00016557,0.00039994,0.00012654,0.00032484
486,0.00016208,0.00040493,0.00012413,0.0003321
488,0.0001631,0.00042898,0.00012627,0.00035588
490,0.00016924,0.0005216,0.00013167,0.00043174
492,0.00018046,0.00079018,0.00013825,0.00065358
494,0.00018225,0.001472,0.00014344,0.0012437
496,0.00018484,0.0025839,0.00014667,0.0022376
498,0.00019588,0.0040171,0.00015591,0.0035528
500,0.00022521,0.0056243,0.00018116,0.0050322
502,0.00027188,0.0072577,0.0002206,0.0065396
504,0.00033091,0.0087626,0.00027046,0.0079888
506,0.00038465,0.0099938,0.00032624,0.009298
508,0.000434,0.010705,0.00037152,0.010129
510,0.00046537,0.01075,0.0004017,0.010273
512,0.0004941,0.0099772,0.00042544,0.0096492
514,0.00051778,0.0084245,0.00044272,0.0082968
516,0.00053103,0.0065784,0.00045012,0.006515
518,0.00051781,0.0047197,0.0004356,0.0045632
520,0.00047354,0.0030047,0.00040552,0.002876
522,0.00043814,0.0016786,0.00038334,0.0016238
524,0.00043246,0.00092622,0.00038248,0.00085892
526,0.00044586,0.00061891,0.00039834,0.0005249
528,0.00047413,0.00052273,0.0004231,0.00041748
530,0.00050654,0.0004932,0.00044872,0.0003815
532,0.00052869,0.00047895,0.00046968,0.00036392
534,0.00054889,0.00047097,0.0004852,0.00035272
536,0.00056673,0.00046782,0.00049824,0.0003458
538,0.00058281,0.00046878,0.0005079,0.00034076
540,0.0005989,0.00047396,0.00051872,0.00033866
542,0.00061393,0.00047918,0.00053168,0.00033792
544,0.00062741,0.00048382,0.0005409,0.00033788
546,0.00064428,0.00049016,0.0005511,0.00033736
548,0.0006601,0.00049641,0.00056272,0.00033712
550,0.00067599,0.00050052,0.00057404,0.00033762
552,0.00069212,0.00050631,0.00058526,0.00033814
554,0.00071153,0.00051304,0.00059822,0.0003376
556,0.00072687,0.00051882,0.00060918,0.00033822
558,0.00074765,0.00052404,0.00062158,0.00033984
560,0.0007662,0.00052808,0.0006375,0.00034148
562,0.00079206,0.00053491,0.0006568,0.00034382
564,0.00084092,0.00054378,0.00069756,0.00034762
566,0.00098106,0.00055263,0.000816,0.00035498
568,0.0014188,0.00056694,0.0011902,0.00036704
570,0.0024589,0.00058578,0.0021119,0.00038638
572,0.0042823,0.0006181,0.0038058,0.00041892
574,0.0068941,0.00067458,0.00633,0.00048014
576,0.010005,0.00078318,0.009292,0.00059242
578,0.013077,0.00096499,0.01202,0.00076846
580,0.01613,0.0012808,0.014581,0.0010648
582,0.018963,0.0018145,0.016847,0.0015465
584,0.021388,0.0025807,0.018711,0.0022614
586,0.022896,0.0035057,0.020054,0.003219
588,0.022435,0.0041653,0.020325,0.0039564
590,0.020355,0.0045936,0.01935,0.0043988
592,0.017568,0.0048109,0.017047,0.0045398
594,0.01453,0.0048406,0.013916,0.0044622
596,0.01091,0.0046469,0.010295,0.0041752
598,0.0079043,0.0041884,0.0073558,0.003683
600,0.0053871,0.0034062,0.0049636,0.0029732
602,0.0032242,0.0025829,0.0030354,0.0022526
604,0.0017049,0.0022967,0.0016493,0.001939
606,0.00089846,0.0030484,0.00084128,0.0025274
608,0.00064029,0.0046482,0.00056182,0.004035
610,0.00057563,0.0066687,0.00049658,0.0060268
612,0.00058976,0.0090039,0.00051138,0.0082538
614,0.0006488,0.011536,0.00057588,0.010538
616,0.00075764,0.01431,0.00069414,0.012932
618,0.00091532,0.016883,0.00085276,0.015065
620,0.0011097,0.018938,0.0010495,0.016771
622,0.0013576,0.020248,0.0012937,0.018061
624,0.0016588,0.020697,0.0015809,0.018889
626,0.0020347,0.020565,0.0019395,0.019287
628,0.0024354,0.020061,0.0023194,0.019199
630,0.0028421,0.01929,0.002699,0.018736
632,0.0032583,0.018423,0.0030878,0.018
634,0.0036657,0.017533,0.0034704,0.017116
636,0.0040904,0.016492,0.003875,0.016078
638,0.0044727,0.015602,0.0042348,0.01516
640,0.0048129,0.014854,0.0045558,0.014376
642,0.0051268,0.01415,0.0048534,0.013673
644,0.0054251,0.013556,0.0051404,0.013071
646,0.0057196,0.012959,0.0054306,0.012483
648,0.0058866,0.012378,0.0056068,0.011952
650,0.0058451,0.01159,0.0055996,0.011235
652,0.0055092,0.010449,0.0053194,0.010189
654,0.0049368,0.0090348,0.0047986,0.0088576
656,0.0041757,0.0074108,0.0040784,0.0072882
658,0.0034539,0.0060162,0.0033914,0.0059234
660,0.0027238,0.0046856,0.0026924,0.004626
662,0.0020053,0.0034567,0.001994,0.003408
664,0.0012868,0.0022752,0.0012846,0.0022356
666,0.00072092,0.0013699,0.0007021,0.0013072
668,0.00042096,0.00089736,0.00037806,0.00079618
670,0.00029015,0.00068836,0.00023296,0.00055664
672,0.00024477,0.00061199,0.00018113,0.00046322
674,0.00023259,0.00056782,0.00016018,0.0004174
676,0.00022581,0.00055527,0.00015183,0.00039428
678,0.00022284,0.00053437,0.00014504,0.00037198
680,0.00022743,0.00051926,0.00014379,0.00035656
682,0.00022567,0.00051046,0.00014494,0.00034348
684,0.00022416,0.00048835,0.00014414,0.0003251
686,0.00023454,0.0004692,0.00014499,0.00030066
688,0.00023402,0.00043898,0.00014738,0.0002771
690,0.00023614,0.00040128,0.00014848,0.0002513
692,0.0002436,0.00037105,0.00015462,0.00022548
694,0.00023949,0.0003276,0.00015228,0.00019996
696,0.00023587,0.00029705,0.0001536,0.00017978
698,0.00024066,0.00027779,0.00015587,0.00016371
700,0.00024589,0.00025376,0.00015884,0.00014977
702,0.00024432,0.00023878,0.00015844,0.00013725
704,0.00024507,0.00022011,0.00016505,0.00012911
706,0.00024163,0.00020656,0.00016584,0.0001204
708,0.00024864,0.00020233,0.00016534,0.00011578
710,0.00024922,0.00019239,0.0001663,0.00011033
712,0.00024671,0.0001892,0.00016392,0.00010718
714,0.00023864,0.00017701,0.0001558,0.00010108
716,0.00021683,0.00015927,0.00014712,9.33e-05
718,0.00019741,0.00015018,0.00012865,8.2706e-05
720,0.0001735,0.00013523,0.00010883,7.792e-05
722,0.0001579,0.00013419,9.5938e-05,7.2756e-05
724,0.00013013,0.00012182,7.9792e-05,7.0448e-05
726,0.00011827,0.00012502,6.5486e-05,6.7738e-05
728,0.00010458,0.00013441,5.3912e-05,6.8412e-05
730,9.3362e-05,0.00013506,4.0445e-05,6.7728e-05
732,6.7233e-05,0.0001188,3.0855e-05,6.8156e-05
734,5.5677e-05,0.00012315,3.7621e-05,7.1242e-05
736,4.1723e-05,0.00011231,3.2694e-05,6.6238e-05
738,4.3195e-05,0.00013095,3.2295e-05,7.2098e-05
740,3.6348e-05,0.00012502,3.1883e-05,7.882e-05
742,3.2339e-05,0.00010237,2.9253e-05,8.0028e-05
744,2.4499e-05,9.7806e-05,2.8491e-05,8.7742e-05
746,2.9844e-05,0.00010207,2.9353e-05,8.8706e-05
748,2.3541e-05,9.6833e-05,2.9477e-05,9.3988e-05
750,1.6929e-05,9.3904e-05,3.7415e-05,9.9296e-05
752,2.5271e-05,7.8201e-05,3.2107e-05,9.8482e-05
754,1.8734e-05,7.1758e-05,3.201e-05,0.00010805
756,2.0627e-05,8.7999e-05,3.0646e-05,0.00010907
758,1.8064e-05,7.1731e-05,3.2095e-05,0.00011128
760,1.9961e-05,7.8963e-05,4.1942e-05,0.00011406
762,2.6238e-05,0.00011475,4.4468e-05,0.00012084
764,3.9481e-05,0.0001238,3.6594e-05,0.00012046
766,3.1816e-05,0.00010229,3.3422e-05,0.00012336
768,3.3108e-05,8.2858e-05,4.3014e-05,0.00012106
770,6.8903e-05,0.00011786,6.1487e-05,0.00012539
772,6.8375e-05,8.9431e-05,6.2094e-05,0.00011778
774,7.943e-05,9.6595e-05,7.3464e-05,0.00012193
776,7.1209e-05,0.00012765,7.7446e-05,0.00012057
778,8.3905e-05,0.00013777,7.2218e-05,0.0001093
780,0.00010793,0.00015578,0.00010386,0.00010992
