Wavelength [nm],Background (Mel),Modulation (Mel),Background (LMS),Modulation (LMS)380,7.312e-06,1.0056e-05,5.864e-06,0,8.642e-06,1.1644e-05,4.986e-06,1.6022e-05,7.418e-06,1.2114e-05,1.1196e-05,6.976e-06,8.262e-06,1.4624e-05,7.684e-06,1.0698e-05,1.0828e-05,1.4872e-05,4.486e-06,1.2676e-05,1.9988e-06,3.646e-06,3.902e-06,2.226e-06,5.216e-06,4.186e-06,3.608e-06,2.536e-06,7.382e-06,6.964e-06,1.9874e-05,2.676e-05,1.9868e-05,6.22e-06,2.338e-05,5.692e-06,1.7984e-05,3.142e-05,7.218e-06,2.51e-05
382,7.762e-06,5.712e-06,5.388e-06,6.478e-07,5.282e-06,9.7e-06,1.8342e-06,1.121e-05,7.438e-06,1.2394e-05,1.1306e-05,9.982e-06,1.5386e-05,1.445e-05,1.0626e-05,1.281e-05,1.2918e-05,1.7832e-05,6.716e-06,1.173e-05,3.542e-06,2.876e-06,5.436e-06,3.156e-06,3.754e-06,6.944e-06,3.082e-06,3.648e-06,5.016e-06,4.348e-06,2.314e-05,3.502e-05,1.3442e-05,9.494e-06,2.178e-05,1.0384e-05,1.7276e-05,2.688e-05,1.0046e-05,2.124e-05
384,1.2762e-05,4.736e-06,4.412e-06,3.112e-06,5.548e-06,9.188e-06,6.752e-06,9.962e-06,8.552e-06,1.0598e-05,1.46e-05,1.036e-05,1.541e-05,1.2956e-05,1.2262e-05,9.054e-06,7.546e-06,1.4492e-05,8.698e-06,1.2934e-05,2.448e-06,3.576e-06,3.334e-06,1.3784e-06,5.53e-06,4.702e-06,2.384e-06,2.44e-06,6.196e-06,5.31e-06,2.188e-05,2.954e-05,1.5224e-05,1.3498e-05,1.7506e-05,7.084e-06,1.6468e-05,2.154e-05,1.1006e-05,2.226e-05
386,9.352e-06,3.5e-06,6.516e-06,1.4884e-06,5.23e-06,8.348e-06,7.02e-06,1.1506e-05,7.482e-06,1.1888e-05,1.4402e-05,1.192e-05,1.456e-05,1.3006e-05,9.786e-06,1.0228e-05,1.15e-05,1.5484e-05,6.772e-06,1.1356e-05,3.232e-06,3.338e-06,4.562e-06,2.468e-06,5.118e-06,4.778e-06,2.488e-06,1.8454e-06,6.55e-06,6.086e-06,2.178e-05,2.734e-05,1.5834e-05,1.2776e-05,1.358e-05,3.288e-06,1.7044e-05,2.352e-05,1.1632e-05,2.338e-05
388,1.2166e-05,2.742e-06,4.568e-06,3.342e-06,4.874e-06,1.004e-05,1.0052e-05,9.742e-06,9.428e-06,9.44e-06,1.2244e-05,1.0346e-05,1.536e-05,1.1286e-05,7.442e-06,1.2222e-05,1.0808e-05,1.6782e-05,7.92e-06,1.3684e-05,3.468e-06,2.97e-06,5.252e-06,2.478e-06,5.346e-06,4.658e-06,3.134e-06,2.774e-06,4.758e-06,5.056e-06,2.116e-05,2.75e-05,1.6874e-05,1.019e-05,1.477e-05,6.936e-06,1.6734e-05,2.478e-05,1.1658e-05,2.328e-05
390,1.1696e-05,3.126e-06,2.004e-06,1.8744e-06,6.384e-06,8.1e-06,8.988e-06,6.668e-06,1.0654e-05,7.528e-06,1.3724e-05,1.0014e-05,1.4812e-05,8.854e-06,8.712e-06,9.972e-06,1.1074e-05,1.775e-05,8.506e-06,1.2264e-05,2.764e-06,3.594e-06,5.23e-06,2.026e-06,4.542e-06,4.806e-06,3.056e-06,2.966e-06,5.206e-06,3.976e-06,2.114e-05,2.598e-05,1.4766e-05,1.0082e-05,1.4534e-05,1.0502e-05,1.6158e-05,2.364e-05,1.5034e-05,2.238e-05
392,8.496e-06,5.184e-06,3.528e-06,2.944e-06,5.062e-06,8.358e-06,8.332e-06,7.612e-06,7.818e-06,6.84e-06,1.4266e-05,1.3728e-05,1.434e-05,8.358e-06,1.1856e-05,1.0304e-05,1.283e-05,1.5312e-05,9.942e-06,9.718e-06,3.836e-06,3.25e-06,6.548e-06,2.446e-06,3.06e-06,4.99e-06,2.802e-06,2.9e-06,4.928e-06,4.344e-06,1.3892e-05,1.967e-05,9.522e-06,1.286e-05,1.6704e-05,1.1096e-05,1.5774e-05,2.078e-05,1.7464e-05,2.214e-05
394,8.444e-06,7.116e-06,1.2356e-06,1.6146e-06,3.036e-06,6.264e-06,9.392e-06,4.272e-06,6.358e-06,6.832e-06,1.2048e-05,1.4132e-05,1.5862e-05,1.0026e-05,9.58e-06,1.1276e-05,1.0776e-05,1.2756e-05,9.578e-06,1.1596e-05,3.026e-06,4.044e-06,6.544e-06,2.438e-06,4.938e-06,5.742e-06,2.524e-06,4.63e-06,5.216e-06,3.828e-06,1.3534e-05,2.11e-05,9.68e-06,1.1772e-05,1.3428e-05,1.0224e-05,1.6296e-05,9.048e-06,8.97e-06,1.4636e-05
396,1.394e-05,3.134e-06,3.72e-06,4.4e-06,1.389e-06,6.474e-06,1.0632e-05,4.786e-06,4.736e-06,5.586e-06,1.308e-05,1.5564e-05,1.221e-05,8.788e-06,6.32e-06,1.0208e-05,1.0562e-05,1.285e-05,9.59e-06,1.0556e-05,2.728e-06,3.976e-06,5.572e-06,3.08e-06,4.684e-06,4.224e-06,2.278e-06,3.058e-06,4.652e-06,3.82e-06,1.3752e-05,2.01e-05,1.1022e-05,1.3562e-05,1.7308e-05,1.3036e-05,1.5932e-05,1.1004e-05,2.024e-05,9.922e-06
398,1.142e-05,4.974e-06,4.532e-06,6.554e-06,3.984e-06,5.522e-06,1.285e-05,2.92e-06,7.526e-06,5.688e-06,1.3838e-05,1.3414e-05,1.4678e-05,8.178e-06,7.352e-06,8.626e-06,1.21e-05,1.4554e-05,1.0014e-05,1.0132e-05,3.088e-06,3.746e-06,4.824e-06,3.924e-06,4.394e-06,3.954e-06,3.246e-06,4.102e-06,3.428e-06,2.292e-06,1.3072e-05,1.7576e-05,1.0402e-05,1.366e-05,1.3836e-05,1.1702e-05,1.506e-05,8.486e-06,1.7434e-05,1.5034e-05
400,7.756e-06,6.366e-06,4.61e-06,4.756e-06,2.562e-06,7.83e-06,1.0684e-05,1.976e-06,4.83e-06,6.878e-06,1.1656e-05,1.248e-05,1.2812e-05,6.866e-06,8.31e-06,8.528e-06,1.0848e-05,1.093e-05,1.1888e-05,9.234e-06,3.024e-06,3.31e-06,5.714e-06,3.024e-06,5.142e-06,4.142e-06,3.698e-06,4.596e-06,2.334e-06,3.762e-06,1.035e-05,1.7168e-05,1.2906e-05,1.3616e-05,1.4938e-05,1.3822e-05,1.494e-05,1.255e-05,1.5508e-05,1.157e-05
402,9.266e-06,6.504e-06,2.76e-06,5.126e-06,3.648e-06,6.606e-06,1.0546e-05,2.366e-06,4.732e-06,5.52e-06,1.1582e-05,1.1486e-05,1.2746e-05,6.14e-06,7.928e-06,8.444e-06,9.638e-06,1.1778e-05,1.158e-05,9.948e-06,3.046e-06,4.424e-06,5.58e-06,2.406e-06,4.49e-06,5.132e-06,4.128e-06,4.458e-06,3.144e-06,2.982e-06,1.2716e-05,1.8158e-05,1.3284e-05,9.906e-06,1.0362e-05,1.8118e-05,1.4468e-05,1.0246e-05,1.6488e-05,1.1878e-05
404,9.018e-06,5.504e-06,3.558e-06,6.944e-06,3.27e-06,6.612e-06,1.0746e-05,1.671e-06,5.95e-06,6.224e-06,1.0302e-05,1.0862e-05,1.011e-05,5.828e-06,7.134e-06,7.704e-06,9.554e-06,1.1452e-05,9.758e-06,7.316e-06,3.032e-06,3.966e-06,4.734e-06,3.088e-06,4.73e-06,4.79e-06,4.282e-06,4.42e-06,3.614e-06,2.704e-06,1.1204e-05,1.6446e-05,8.346e-06,9.096e-06,1.2956e-05,1.9282e-05,1.4354e-05,6.062e-06,1.9126e-05,1.1462e-05
406,9.69e-06,6.702e-06,4.362e-06,9.978e-06,3.108e-06,4.46e-06,1.0464e-05,2.122e-06,5.666e-06,9.062e-06,9.524e-06,1.2556e-05,9.164e-06,5.23e-06,6.086e-06,9.206e-06,9.714e-06,8.866e-06,9.98e-06,6.54e-06,2.864e-06,3.718e-06,4.784e-06,2.738e-06,4.73e-06,4.094e-06,4.568e-06,4.62e-06,2.926e-06,3.004e-06,1.1872e-05,1.3532e-05,6.56e-06,1.0972e-05,9.7e-06,1.7482e-05,1.4724e-05,5.384e-06,1.7238e-05,1.3058e-05
408,7.12e-06,9.824e-06,6.116e-06,6.904e-06,4.914e-06,5.894e-06,1.2774e-05,2.84e-06,3.942e-06,7.988e-06,8.45e-06,9.966e-06,8.62e-06,3.452e-06,4.658e-06,9.03e-06,9.398e-06,1.0912e-05,1.0686e-05,7.922e-06,2.738e-06,3.874e-06,5.26e-06,3.41e-06,4.622e-06,4.656e-06,4.144e-06,5.472e-06,2.952e-06,3.448e-06,1.3554e-05,8.948e-06,1.0172e-05,1.1262e-05,1.1254e-05,2.022e-05,1.4144e-05,5.686e-06,1.7298e-05,7.812e-06
410,6.236e-06,7.232e-06,4.846e-06,8.714e-06,3.226e-06,5.208e-06,1.3066e-05,3.3e-06,5.53e-06,9.306e-06,8.514e-06,1.2656e-05,1.0272e-05,4.406e-06,6.872e-06,8.7e-06,1.0078e-05,8.66e-06,8.876e-06,8.272e-06,4.026e-06,3.842e-06,4.736e-06,3.55e-06,4.034e-06,4.542e-06,5.35e-06,5.716e-06,3.22e-06,4.356e-06,1.1738e-05,2.888e-06,1.2926e-05,9.514e-06,1.1876e-05,2.212e-05,1.4386e-05,8.854e-06,1.9454e-05,1.1612e-05
412,5.518e-06,9.208e-06,8.462e-06,9.45e-06,4.946e-06,8.702e-06,1.391e-05,2.96e-06,5.004e-06,9.496e-06,9.764e-06,9.678e-06,1.141e-05,5.458e-06,6.16e-06,9.26e-06,7.85e-06,7.352e-06,9.79e-06,5.99e-06,2.664e-06,4.008e-06,4.558e-06,4.526e-06,3.59e-06,4.11e-06,4.804e-06,5.356e-06,2.354e-06,2.672e-06,1.4056e-05,1.4458e-05,1.0304e-05,1.6298e-05,1.2398e-05,2.066e-05,1.5264e-05,1.1432e-05,1.8462e-05,1.4034e-05
414,1.0062e-05,1.1836e-05,1.1508e-05,1.3416e-05,7.882e-06,1.257e-05,1.5434e-05,5.59e-06,8.208e-06,1.2898e-05,1.0148e-05,1.048e-05,8.902e-06,6.902e-06,5.484e-06,9.51e-06,1.002e-05,7.77e-06,1.2836e-05,8.386e-06,4.134e-06,3.752e-06,4.578e-06,4.534e-06,4.204e-06,4.648e-06,4.722e-06,5.42e-06,3.354e-06,3.096e-06,1.7862e-05,1.7676e-05,1.793e-05,1.8706e-05,2.392e-05,2.562e-05,1.9704e-05,1.6392e-05,2.572e-05,1.6466e-05
416,2.288e-05,2.52e-05,2.398e-05,2.666e-05,1.8624e-05,2.142e-05,2.812e-05,1.6674e-05,2.046e-05,2.3e-05,1.3538e-05,1.419e-05,1.1136e-05,1.0946e-05,1.0754e-05,1.2778e-05,1.2866e-05,1.1194e-05,1.5268e-05,1.1234e-05,4.834e-06,4.318e-06,5.19e-06,4.914e-06,4.874e-06,4.716e-06,5.506e-06,5.548e-06,3.606e-06,3.764e-06,3.368e-05,3.28e-05,3.252e-05,3.548e-05,4.036e-05,4.198e-05,3.364e-05,3.142e-05,4.182e-05,3.218e-05
418,5.05e-05,5.368e-05,5.282e-05,5.482e-05,4.79e-05,5.034e-05,5.344e-05,4.57e-05,5.004e-05,5.242e-05,2.164e-05,2.216e-05,2.01e-05,1.9822e-05,1.8644e-05,2.168e-05,2.068e-05,1.7276e-05,2.286e-05,1.9974e-05,5.564e-06,5.936e-06,6.288e-06,5.446e-06,6.524e-06,5.766e-06,7.846e-06,6.874e-06,5.618e-06,4.984e-06,7.122e-05,7.054e-05,7.262e-05,7.696e-05,8.014e-05,7.954e-05,6.838e-05,7e-05,7.668e-05,7.04e-05
420,9.95e-05,0.00010422,0.00010322,0.00010446,0.00010002,9.974e-05,0.00010364,9.62e-05,0.00010036,0.0001021,3.58e-05,3.578e-05,3.318e-05,3.452e-05,3.326e-05,3.464e-05,3.414e-05,3.172e-05,3.504e-05,3.36e-05,7.85e-06,8.07e-06,8.918e-06,8.086e-06,8.684e-06,8.384e-06,9.114e-06,9.564e-06,8.292e-06,7.992e-06,0.00013952,0.00014012,0.0001435,0.00014594,0.0001505,0.00014472,0.00013058,0.00013584,0.00014366,0.00013768
422,0.0001628,0.0001669,0.00016728,0.00017168,0.000166,0.00016344,0.00016646,0.00015952,0.00016288,0.0001655,5.268e-05,5.286e-05,5.144e-05,5.184e-05,5.23e-05,5.22e-05,5.258e-05,4.734e-05,5.424e-05,5.154e-05,1.1962e-05,1.1344e-05,1.269e-05,1.2036e-05,1.2102e-05,1.2434e-05,1.2788e-05,1.3534e-05,1.1166e-05,1.084e-05,0.0002378,0.0002352,0.0002392,0.0002406,0.0002456,0.0002386,0.0002184,0.0002332,0.0002398,0.0002344
424,0.0002292,0.00023,0.0002334,0.0002332,0.0002316,0.000227,0.00023,0.0002236,0.0002298,0.0002294,6.972e-05,7.136e-05,6.878e-05,6.878e-05,6.856e-05,7.086e-05,7.006e-05,6.514e-05,7.206e-05,6.942e-05,1.6368e-05,1.6212e-05,1.63e-05,1.5642e-05,1.672e-05,1.69e-05,1.7054e-05,1.728e-05,1.5262e-05,1.6012e-05,0.0003626,0.0003598,0.0003644,0.0003658,0.0003722,0.0003642,0.0003316,0.000357,0.0003636,0.0003548
426,0.0002874,0.000291,0.000292,0.000291,0.0002894,0.0002884,0.0002904,0.0002848,0.0002908,0.0002918,8.878e-05,8.914e-05,8.522e-05,8.622e-05,8.596e-05,8.64e-05,8.72e-05,8.468e-05,8.874e-05,8.66e-05,2.19e-05,2.164e-05,2.098e-05,2.158e-05,2.222e-05,2.242e-05,2.25e-05,2.322e-05,2.146e-05,2.102e-05,0.0005216,0.0005194,0.0005262,0.000527,0.0005294,0.0005212,0.0004724,0.000515,0.0005214,0.0005174
428,0.0003414,0.000344,0.000346,0.0003446,0.000342,0.0003432,0.0003436,0.0003392,0.000343,0.0003444,0.00010262,0.00010366,0.0001002,0.0001032,0.00010262,0.00010324,0.00010424,0.00010014,0.00010324,0.00010138,2.844e-05,2.824e-05,2.782e-05,2.834e-05,2.736e-05,2.764e-05,2.96e-05,2.946e-05,2.786e-05,2.824e-05,0.0007036,0.0006988,0.0007048,0.0007048,0.0007114,0.0006998,0.0006326,0.0007002,0.0007028,0.000697
430,0.000383,0.000388,0.0003872,0.0003886,0.0003864,0.0003854,0.0003862,0.0003814,0.0003874,0.0003862,0.00011538,0.0001152,0.00011292,0.00011558,0.00011486,0.00011538,0.00011682,0.0001129,0.00011666,0.00011302,3.442e-05,3.404e-05,3.402e-05,3.396e-05,3.364e-05,3.4e-05,3.566e-05,3.498e-05,3.28e-05,3.36e-05,0.0008658,0.000862,0.0008692,0.000868,0.0008744,0.0008628,0.0007766,0.0008652,0.0008624,0.000859
432,0.0004054,0.0004106,0.0004106,0.0004106,0.0004104,0.0004086,0.0004088,0.0004054,0.0004092,0.0004076,0.00012196,0.00012172,0.00012046,0.00012298,0.00012274,0.00012252,0.00012324,0.00011984,0.00012342,0.00012052,3.916e-05,3.94e-05,3.86e-05,3.898e-05,3.868e-05,3.918e-05,3.972e-05,4.012e-05,3.85e-05,3.828e-05,0.000979,0.0009768,0.0009824,0.000981,0.000987,0.0009768,0.0008866,0.0009784,0.0009768,0.000973
434,0.0003908,0.0003956,0.0003962,0.0003954,0.000397,0.0003944,0.0003956,0.0003934,0.0003966,0.0003942,0.00011896,0.00011982,0.00011656,0.00012024,0.0001196,0.00012024,0.00012082,0.00011772,0.00012148,0.00011894,4.2e-05,4.2e-05,4.146e-05,4.188e-05,4.25e-05,4.222e-05,4.32e-05,4.312e-05,4.132e-05,4.162e-05,0.0010218,0.001018,0.0010248,0.0010242,0.0010292,0.001021,0.0009524,0.001024,0.0010218,0.0010184
436,0.0003278,0.0003322,0.000335,0.0003322,0.0003336,0.0003344,0.0003344,0.0003316,0.0003378,0.0003326,0.00010406,0.00010308,0.0001011,0.0001044,0.0001037,0.0001035,0.00010518,0.00010282,0.00010714,0.0001037,4.206e-05,4.244e-05,4.2e-05,4.288e-05,4.296e-05,4.25e-05,4.316e-05,4.366e-05,4.16e-05,4.266e-05,0.0009914,0.0009874,0.000993,0.000994,0.0009976,0.000991,0.0009636,0.000989,0.0009892,0.0009866
438,0.0002318,0.0002358,0.0002372,0.0002358,0.0002382,0.0002394,0.0002386,0.0002372,0.0002414,0.0002366,7.892e-05,7.9e-05,7.634e-05,7.908e-05,7.808e-05,7.812e-05,8.052e-05,7.958e-05,8.188e-05,7.902e-05,4.104e-05,4.102e-05,3.996e-05,4.224e-05,4.128e-05,4.102e-05,4.17e-05,4.176e-05,4.004e-05,4.112e-05,0.0008994,0.0008966,0.0009026,0.000902,0.000905,0.0009034,0.0009184,0.0009012,0.0009004,0.000895
440,0.00013456,0.00013754,0.00013878,0.00013588,0.00013854,0.00014046,0.00014058,0.00014048,0.00014226,0.00013922,5.4e-05,5.602e-05,5.08e-05,5.606e-05,5.266e-05,5.524e-05,5.564e-05,5.518e-05,5.606e-05,5.494e-05,3.908e-05,3.868e-05,3.808e-05,3.964e-05,3.834e-05,3.928e-05,3.96e-05,3.912e-05,3.822e-05,3.824e-05,0.0007586,0.0007556,0.0007612,0.0007622,0.0007608,0.0007664,0.0008164,0.000764,0.0007632,0.0007606
442,7.082e-05,7.37e-05,7.418e-05,7.2e-05,7.564e-05,7.588e-05,7.448e-05,7.466e-05,7.734e-05,7.376e-05,3.99e-05,3.86e-05,3.748e-05,4.152e-05,3.974e-05,3.948e-05,4.054e-05,4.022e-05,4.002e-05,4.006e-05,3.544e-05,3.554e-05,3.398e-05,3.578e-05,3.55e-05,3.55e-05,3.636e-05,3.566e-05,3.548e-05,3.564e-05,0.0005742,0.000572,0.0005756,0.0005774,0.0005758,0.0005804,0.0006466,0.000583,0.0005808,0.0005778
444,5.296e-05,5.554e-05,5.58e-05,5.248e-05,5.712e-05,5.606e-05,5.48e-05,5.664e-05,5.702e-05,5.474e-05,3.636e-05,3.652e-05,3.492e-05,3.884e-05,3.7e-05,3.606e-05,3.7e-05,3.778e-05,3.688e-05,3.608e-05,3.22e-05,3.276e-05,3.104e-05,3.308e-05,3.31e-05,3.302e-05,3.37e-05,3.322e-05,3.258e-05,3.338e-05,0.0003938,0.0003926,0.0003964,0.0003958,0.0003966,0.0004012,0.0004624,0.0004036,0.000402,0.0003998
446,5.116e-05,5.202e-05,5.27e-05,5.098e-05,5.446e-05,5.426e-05,5.052e-05,5.418e-05,5.482e-05,5.176e-05,3.728e-05,3.71e-05,3.498e-05,3.948e-05,3.654e-05,3.716e-05,3.798e-05,3.888e-05,3.774e-05,3.7e-05,3.074e-05,3.076e-05,2.944e-05,3.172e-05,3.146e-05,3.116e-05,3.15e-05,3.16e-05,3.066e-05,3.104e-05,0.0002408,0.000241,0.0002428,0.0002426,0.000245,0.0002472,0.0002894,0.0002508,0.000246,0.0002464
448,5.432e-05,5.498e-05,5.516e-05,5.27e-05,5.758e-05,5.784e-05,5.358e-05,5.612e-05,5.782e-05,5.376e-05,3.97e-05,4e-05,3.792e-05,4.226e-05,3.974e-05,3.982e-05,3.97e-05,4.218e-05,3.992e-05,3.964e-05,3.176e-05,3.146e-05,3.032e-05,3.246e-05,3.2e-05,3.158e-05,3.224e-05,3.21e-05,3.182e-05,3.148e-05,0.00014974,0.00014706,0.00014924,0.00014982,0.0001499,0.0001507,0.00017366,0.00015308,0.00014972,0.00015192
450,5.862e-05,5.93e-05,6.008e-05,5.8e-05,6.158e-05,6.114e-05,5.862e-05,6.026e-05,6.226e-05,5.792e-05,4.3e-05,4.388e-05,4.142e-05,4.568e-05,4.348e-05,4.242e-05,4.3e-05,4.536e-05,4.258e-05,4.314e-05,3.426e-05,3.384e-05,3.328e-05,3.478e-05,3.478e-05,3.452e-05,3.444e-05,3.434e-05,3.452e-05,3.444e-05,0.0001156,0.00011174,0.0001154,0.0001155,0.00011554,0.00011196,0.00012306,0.00011698,0.0001143,0.00011804
452,6.208e-05,6.366e-05,6.252e-05,6.152e-05,6.284e-05,6.434e-05,5.958e-05,6.324e-05,6.472e-05,6.092e-05,4.51e-05,4.722e-05,4.356e-05,4.68e-05,4.568e-05,4.402e-05,4.522e-05,4.658e-05,4.506e-05,4.456e-05,3.636e-05,3.626e-05,3.538e-05,3.708e-05,3.716e-05,3.682e-05,3.662e-05,3.682e-05,3.714e-05,3.674e-05,0.00010814,0.00010592,0.0001069,0.000108,0.00010652,0.0001048,0.0001085,0.00011,0.00010318,0.00010848
454,6.284e-05,6.08e-05,6.14e-05,6.084e-05,6.362e-05,6.276e-05,5.944e-05,6.256e-05,6.398e-05,5.982e-05,4.624e-05,4.63e-05,4.404e-05,4.758e-05,4.742e-05,4.396e-05,4.468e-05,4.664e-05,4.54e-05,4.576e-05,3.784e-05,3.716e-05,3.672e-05,3.888e-05,3.91e-05,3.816e-05,3.76e-05,3.77e-05,3.832e-05,3.824e-05,0.00010496,0.00010142,0.00010398,0.00010404,0.00010588,0.0001018,0.00010364,0.00010388,0.00010076,0.00010418
456,6.27e-05,6.042e-05,6.1e-05,6.066e-05,6.37e-05,6.2e-05,6.01e-05,6.452e-05,6.292e-05,5.968e-05,4.78e-05,4.842e-05,4.682e-05,5.042e-05,4.862e-05,4.646e-05,4.594e-05,4.838e-05,4.594e-05,4.694e-05,3.93e-05,3.926e-05,3.83e-05,4.046e-05,4.036e-05,3.91e-05,3.952e-05,3.986e-05,3.988e-05,3.93e-05,0.00010334,0.00010318,0.00010006,0.00010286,0.00010324,9.894e-05,0.00010174,0.00010316,0.00010014,0.00010396
458,6.532e-05,6.36e-05,6.152e-05,6.168e-05,6.486e-05,6.574e-05,6.272e-05,6.662e-05,6.54e-05,6.188e-05,4.872e-05,5.054e-05,4.932e-05,5.228e-05,5.086e-05,4.764e-05,4.838e-05,4.968e-05,4.864e-05,4.954e-05,4.14e-05,4.186e-05,4.08e-05,4.256e-05,4.288e-05,4.238e-05,4.178e-05,4.182e-05,4.288e-05,4.272e-05,0.00010484,0.00010502,0.00010536,0.00010544,0.00010648,9.892e-05,0.0001032,0.00010566,9.844e-05,0.00010704
460,6.862e-05,6.538e-05,6.528e-05,6.344e-05,6.846e-05,6.74e-05,6.482e-05,6.894e-05,6.688e-05,6.382e-05,5.206e-05,5.286e-05,5.12e-05,5.492e-05,5.308e-05,5.04e-05,5.084e-05,5.198e-05,5.124e-05,5.246e-05,4.48e-05,4.44e-05,4.366e-05,4.554e-05,4.614e-05,4.474e-05,4.408e-05,4.444e-05,4.564e-05,4.504e-05,0.00010716,0.00010554,0.00010734,0.00010532,0.00010718,0.00010126,0.00010494,0.00010764,9.974e-05,0.00010834
462,7.172e-05,6.862e-05,6.756e-05,6.776e-05,7.048e-05,7.174e-05,6.85e-05,7.344e-05,6.838e-05,6.626e-05,5.424e-05,5.538e-05,5.486e-05,5.786e-05,5.626e-05,5.242e-05,5.35e-05,5.68e-05,5.428e-05,5.452e-05,4.814e-05,4.764e-05,4.674e-05,4.878e-05,4.928e-05,4.782e-05,4.684e-05,4.736e-05,4.888e-05,4.812e-05,0.00010648,0.00010866,0.00010782,0.00010754,0.00010756,0.0001031,0.00010678,0.00010914,0.00010296,0.00011086
464,7.49e-05,7.286e-05,7.08e-05,7.186e-05,7.152e-05,7.428e-05,7.106e-05,7.7e-05,7.124e-05,6.932e-05,5.746e-05,5.788e-05,5.766e-05,6.044e-05,5.806e-05,5.612e-05,5.554e-05,5.712e-05,5.602e-05,5.67e-05,5.18e-05,5.164e-05,5.024e-05,5.198e-05,5.276e-05,5.122e-05,5.078e-05,5.118e-05,5.264e-05,5.15e-05,0.00011,0.00011056,0.00011022,0.00011098,0.00010888,0.00010514,0.00010886,0.00011166,0.00010518,0.00011086
466,7.956e-05,7.64e-05,7.6e-05,7.56e-05,7.794e-05,7.838e-05,7.484e-05,8.054e-05,7.604e-05,7.39e-05,6.046e-05,6.104e-05,6.06e-05,6.348e-05,6.042e-05,5.886e-05,5.844e-05,5.922e-05,5.934e-05,5.882e-05,5.536e-05,5.586e-05,5.502e-05,5.634e-05,5.71e-05,5.57e-05,5.506e-05,5.59e-05,5.752e-05,5.55e-05,0.0001129,0.00011694,0.00011542,0.00011552,0.00011344,0.00011188,0.00011312,0.00011644,0.0001099,0.00011654
468,8.556e-05,8.276e-05,8.236e-05,8.154e-05,8.198e-05,8.424e-05,8.08e-05,8.738e-05,8.244e-05,8.236e-05,6.488e-05,6.504e-05,6.518e-05,6.748e-05,6.478e-05,6.306e-05,6.394e-05,6.518e-05,6.442e-05,6.35e-05,6.082e-05,6.074e-05,6.158e-05,6.222e-05,6.26e-05,6.084e-05,6.028e-05,6.15e-05,6.288e-05,6.158e-05,0.0001228,0.00012388,0.00012148,0.0001229,0.00011916,0.0001166,0.00011864,0.00012258,0.00011614,0.00012416
470,8.632e-05,8.35e-05,8.274e-05,8.37e-05,8.444e-05,8.596e-05,7.89e-05,8.736e-05,8.212e-05,8.294e-05,6.408e-05,6.37e-05,6.504e-05,6.522e-05,6.292e-05,6.166e-05,6.264e-05,6.258e-05,6.316e-05,6.414e-05,6.352e-05,6.376e-05,6.314e-05,6.454e-05,6.484e-05,6.344e-05,6.278e-05,6.356e-05,6.49e-05,6.306e-05,0.0001234,0.00012736,0.00012046,0.00012124,0.00011758,0.00011804,0.00011936,0.00012268,0.00011662,0.00012276
472,8.566e-05,8.244e-05,8.426e-05,8.2e-05,8.164e-05,8.526e-05,7.936e-05,8.714e-05,7.928e-05,8.148e-05,6.354e-05,6.254e-05,6.398e-05,6.368e-05,6.268e-05,5.986e-05,6.136e-05,6.014e-05,6.098e-05,6.26e-05,6.394e-05,6.37e-05,6.38e-05,6.51e-05,6.524e-05,6.376e-05,6.29e-05,6.378e-05,6.514e-05,6.394e-05,0.00011718,0.00012114,0.00011778,0.00012014,0.00011572,0.00011336,0.00011734,0.00011892,0.00011248,0.00011908
474,8.34e-05,8.212e-05,8.228e-05,8.202e-05,7.88e-05,8.24e-05,7.852e-05,8.466e-05,7.96e-05,7.992e-05,6.114e-05,6.168e-05,6.136e-05,6.248e-05,6.07e-05,5.866e-05,5.886e-05,5.752e-05,5.828e-05,6.006e-05,6.458e-05,6.432e-05,6.446e-05,6.482e-05,6.59e-05,6.428e-05,6.344e-05,6.418e-05,6.64e-05,6.436e-05,0.00011542,0.0001194,0.0001156,0.00011612,0.0001117,0.00011276,0.00011438,0.00011468,0.0001104,0.00011514
476,7.936e-05,7.846e-05,7.75e-05,7.872e-05,7.526e-05,7.908e-05,7.464e-05,8.042e-05,7.676e-05,7.688e-05,5.716e-05,5.754e-05,5.878e-05,5.738e-05,5.588e-05,5.462e-05,5.59e-05,5.416e-05,5.482e-05,5.666e-05,6.328e-05,6.276e-05,6.356e-05,6.322e-05,6.432e-05,6.302e-05,6.284e-05,6.324e-05,6.516e-05,6.316e-05,0.00011004,0.000116,0.00010852,0.00010898,0.000105,0.0001077,0.000109,0.00010894,0.0001051,0.000108
478,7.626e-05,7.682e-05,7.668e-05,7.73e-05,7.426e-05,7.87e-05,7.384e-05,7.834e-05,7.482e-05,7.536e-05,5.528e-05,5.474e-05,5.676e-05,5.484e-05,5.26e-05,5.27e-05,5.446e-05,5.234e-05,5.254e-05,5.506e-05,6.308e-05,6.288e-05,6.418e-05,6.314e-05,6.394e-05,6.31e-05,6.288e-05,6.3e-05,6.52e-05,6.312e-05,0.00010528,0.00010796,0.00010498,0.0001051,0.00010076,0.00010282,0.00010498,0.00010378,0.00010232,0.00010558
480,8.032e-05,7.852e-05,7.848e-05,8.14e-05,7.812e-05,8.02e-05,7.568e-05,8.056e-05,7.53e-05,7.756e-05,5.664e-05,5.504e-05,5.754e-05,5.62e-05,5.72e-05,5.506e-05,5.454e-05,5.366e-05,5.512e-05,5.676e-05,6.684e-05,6.706e-05,6.792e-05,6.692e-05,6.78e-05,6.73e-05,6.728e-05,6.714e-05,6.932e-05,6.684e-05,0.00010654,0.00011224,0.00010652,0.00010658,0.0001017,0.0001065,0.00010636,0.00010322,0.00010408,0.00010744
482,8.548e-05,8.482e-05,8.228e-05,8.414e-05,7.938e-05,8.462e-05,7.88e-05,8.37e-05,8.048e-05,8.3e-05,5.946e-05,5.728e-05,6.064e-05,6.018e-05,5.854e-05,5.83e-05,5.564e-05,5.906e-05,5.792e-05,5.908e-05,7.33e-05,7.352e-05,7.42e-05,7.334e-05,7.376e-05,7.328e-05,7.348e-05,7.372e-05,7.566e-05,7.342e-05,0.00010926,0.00011462,0.00011006,0.00010972,0.0001075,0.00011146,0.00010982,0.00010882,0.00010944,0.0001114
484,8.566e-05,8.594e-05,8.456e-05,8.472e-05,8.128e-05,8.424e-05,8.078e-05,8.334e-05,8.09e-05,8.318e-05,6.192e-05,6.262e-05,6.328e-05,6.338e-05,6.076e-05,6.01e-05,5.908e-05,6.12e-05,6.154e-05,6.256e-05,7.704e-05,7.696e-05,7.772e-05,7.694e-05,7.802e-05,7.668e-05,7.682e-05,7.782e-05,7.886e-05,7.748e-05,0.00010892,0.00011458,0.00011,0.00010926,0.00010542,0.0001122,0.0001103,0.00010638,0.00010926,0.00010922
486,8.3e-05,8.364e-05,8.332e-05,8.34e-05,8.024e-05,8.162e-05,7.956e-05,8.212e-05,7.822e-05,8.204e-05,7.104e-05,7.126e-05,7.296e-05,7.362e-05,7.056e-05,6.978e-05,6.976e-05,6.85e-05,7.054e-05,7.014e-05,8.186e-05,8.186e-05,8.246e-05,8.102e-05,8.27e-05,8.072e-05,8.092e-05,8.228e-05,8.322e-05,8.156e-05,0.00010958,0.0001113,0.0001074,0.00010718,0.00010284,0.00011008,0.00010838,0.00010268,0.00010622,0.0001076
488,8.312e-05,8.392e-05,8.408e-05,8.276e-05,8.006e-05,8.206e-05,7.904e-05,8.212e-05,7.706e-05,8.282e-05,0.00011158,0.0001107,0.00011368,0.00011296,0.00011126,0.00010878,0.00010774,0.00010768,0.00010826,0.00010908,9.92e-05,9.878e-05,0.00010022,9.862e-05,9.962e-05,9.658e-05,9.748e-05,9.788e-05,9.97e-05,9.804e-05,0.00011326,0.00011702,0.00011186,0.00010988,0.00010658,0.00011158,0.00010964,0.00010344,0.00010876,0.0001094
490,8.776e-05,8.87e-05,8.544e-05,8.622e-05,8.322e-05,8.532e-05,8.256e-05,8.438e-05,8.254e-05,8.714e-05,0.0002548,0.0002538,0.000255,0.0002556,0.0002548,0.0002434,0.000242,0.0002458,0.0002448,0.0002474,0.00016396,0.00016406,0.00016474,0.00016392,0.00016436,0.00015816,0.00015872,0.00015962,0.00016148,0.0001603,0.00012586,0.0001295,0.00012516,0.00012254,0.0001194,0.00012592,0.00012102,0.00011402,0.00012184,0.00012156
492,9.35e-05,9.53e-05,9.204e-05,9.236e-05,9.02e-05,9.328e-05,8.846e-05,8.782e-05,8.764e-05,9.462e-05,0.0006034,0.0006022,0.0006006,0.000605,0.0006044,0.0005766,0.0005766,0.0005834,0.0005836,0.0005872,0.0003288,0.000329,0.0003288,0.0003286,0.0003286,0.0003148,0.000316,0.000318,0.0003206,0.0003198,0.00015466,0.00015626,0.00015298,0.0001518,0.00014808,0.0001526,0.00014588,0.00014282,0.00015166,0.00014916
494,9.668e-05,9.926e-05,9.756e-05,0.00010016,9.284e-05,9.594e-05,9.166e-05,9.212e-05,9.112e-05,9.746e-05,0.001209,0.0012088,0.0012064,0.0012108,0.0012118,0.0011708,0.0011714,0.0011854,0.0011824,0.0011868,0.0006178,0.0006182,0.0006192,0.0006182,0.000618,0.0005982,0.0006004,0.0006022,0.000606,0.000605,0.00019628,0.0001984,0.00019484,0.0001932,0.0001931,0.00019452,0.00018422,0.0001842,0.00019192,0.00019162
496,0.00010134,0.00010324,0.0001014,0.00010316,0.00010092,0.0001012,9.76e-05,9.794e-05,9.924e-05,0.00010154,0.0018554,0.001852,0.0018508,0.0018556,0.0018584,0.001811,0.0018136,0.001834,0.0018246,0.0018268,0.0009088,0.0009088,0.0009086,0.000909,0.0009084,0.0008878,0.0008906,0.0008922,0.0008962,0.0008944,0.0002334,0.0002324,0.0002326,0.0002328,0.0002294,0.000234,0.0002224,0.000226,0.000232,0.0002308
498,0.00011558,0.00011744,0.00011624,0.00011646,0.00011346,0.00011418,0.00011158,0.00011148,0.00011154,0.00011444,0.002476,0.002472,0.002472,0.002476,0.00248,0.00243,0.002434,0.002468,0.002446,0.002448,0.0011384,0.0011382,0.0011388,0.0011386,0.0011382,0.0011204,0.0011232,0.0011238,0.0011274,0.0011254,0.0002644,0.0002624,0.0002622,0.000263,0.000259,0.0002646,0.0002528,0.0002546,0.0002618,0.0002614
500,0.0001405,0.0001423,0.00014036,0.00014164,0.00013996,0.00013806,0.00013626,0.00013604,0.00013662,0.0001394,0.003046,0.00304,0.003044,0.003046,0.003052,0.003002,0.003008,0.003052,0.00302,0.00302,0.0012872,0.0012868,0.0012876,0.001288,0.0012872,0.0012738,0.0012774,0.0012772,0.001279,0.0012778,0.0002832,0.000282,0.0002808,0.000281,0.0002804,0.000284,0.000273,0.0002746,0.0002812,0.0002802
502,0.00017064,0.0001723,0.00017072,0.0001716,0.00017134,0.00016906,0.00016642,0.00016782,0.00016844,0.0001701,0.00353,0.003524,0.003528,0.003532,0.003536,0.003492,0.003498,0.003554,0.003512,0.00351,0.0013708,0.001371,0.0013716,0.0013724,0.001371,0.0013622,0.001365,0.0013658,0.001367,0.0013658,0.0002924,0.0002942,0.000292,0.0002916,0.0002922,0.0002932,0.000285,0.0002868,0.0002912,0.0002928
504,0.0001961,0.00019652,0.00019426,0.00019658,0.00019322,0.0001924,0.0001917,0.00019184,0.00019252,0.00019612,0.003878,0.00387,0.003874,0.003878,0.003884,0.00385,0.003858,0.003914,0.003868,0.003864,0.0014116,0.0014112,0.0014118,0.0014118,0.0014106,0.0014066,0.0014088,0.0014098,0.0014106,0.0014094,0.000298,0.000298,0.0002948,0.0002956,0.000294,0.0002998,0.0002912,0.0002918,0.000296,0.0002978
506,0.0002076,0.0002112,0.0002056,0.0002098,0.0002058,0.0002054,0.0002044,0.0002018,0.0002052,0.0002066,0.004002,0.003998,0.004002,0.004004,0.004008,0.003994,0.004,0.00403,0.004006,0.004,0.0013956,0.0013952,0.0013956,0.0013964,0.0013952,0.001397,0.0013988,0.0013988,0.0013992,0.0013976,0.0002938,0.000292,0.0002906,0.0002892,0.0002906,0.0002944,0.0002894,0.0002876,0.0002954,0.000291
508,0.0002116,0.000214,0.0002114,0.0002116,0.0002116,0.0002098,0.000209,0.0002072,0.0002104,0.000212,0.003808,0.003808,0.00381,0.00381,0.003812,0.003822,0.003824,0.003812,0.003826,0.003816,0.0012646,0.0012648,0.001266,0.001266,0.0012648,0.001275,0.001275,0.001275,0.0012736,0.001272,0.0002694,0.0002702,0.000267,0.0002678,0.0002714,0.0002724,0.0002708,0.0002684,0.0002732,0.0002712
510,0.0002124,0.0002146,0.0002118,0.0002126,0.0002138,0.0002118,0.0002108,0.0002084,0.0002114,0.000214,0.003308,0.00331,0.003312,0.00331,0.003312,0.003338,0.003336,0.003286,0.003334,0.003322,0.000995,0.000995,0.0009968,0.0009962,0.0009954,0.0010128,0.0010104,0.0010108,0.0010082,0.0010062,0.0002308,0.0002304,0.0002296,0.0002298,0.0002288,0.0002336,0.0002366,0.0002298,0.0002346,0.0002328
512,0.0002104,0.0002114,0.000209,0.0002102,0.00021,0.0002092,0.000207,0.0002054,0.000209,0.0002106,0.00263,0.002632,0.002634,0.00263,0.002632,0.002662,0.002658,0.002602,0.002654,0.002644,0.0006512,0.0006508,0.0006526,0.0006522,0.0006516,0.0006692,0.0006672,0.0006668,0.0006634,0.0006624,0.0001944,0.00019316,0.00019126,0.0001914,0.00019318,0.00019726,0.00019824,0.00019242,0.00019682,0.00019266
514,0.00019476,0.00019642,0.00019546,0.00019694,0.00019702,0.00019592,0.00019464,0.00019376,0.0001968,0.00019696,0.0019468,0.0019486,0.0019504,0.001947,0.0019484,0.0019708,0.001969,0.0019308,0.0019658,0.0019566,0.0003718,0.0003714,0.0003724,0.000372,0.0003714,0.0003822,0.0003814,0.0003812,0.000378,0.0003788,0.00017032,0.00016832,0.000168,0.00016902,0.00017242,0.00017202,0.00017194,0.00016986,0.00017354,0.00016912
516,0.00017152,0.0001733,0.00017186,0.0001727,0.00017358,0.00017208,0.00017238,0.00017002,0.00017224,0.00017232,0.0013512,0.0013514,0.0013552,0.001351,0.0013526,0.0013684,0.0013686,0.0013486,0.001368,0.0013592,0.0002306,0.00023,0.0002306,0.0002304,0.0002296,0.0002334,0.0002332,0.0002326,0.0002306,0.0002324,0.0001618,0.00015858,0.00016116,0.00016128,0.00016274,0.00016348,0.00016024,0.00015946,0.0001637,0.000161
518,0.00014632,0.00014802,0.00014622,0.0001471,0.00014772,0.00014578,0.00014662,0.00014418,0.00014898,0.00014726,0.0008364,0.0008354,0.000838,0.0008354,0.0008356,0.0008504,0.000852,0.0008428,0.0008502,0.000845,0.0001838,0.0001836,0.0001836,0.00018372,0.00018346,0.00018352,0.00018408,0.00018346,0.00018188,0.00018312,0.00016164,0.00015824,0.00015852,0.00016062,0.00015934,0.00015862,0.00015694,0.0001606,0.00016142,0.00015884
520,0.0001334,0.00013358,0.00013408,0.00013284,0.00013522,0.00013458,0.00013402,0.00013126,0.00013478,0.0001333,0.0005092,0.0005094,0.000511,0.0005084,0.0005092,0.0005174,0.0005192,0.0005162,0.0005196,0.000515,0.00017278,0.00017232,0.00017248,0.00017218,0.00017238,0.00017232,0.00017276,0.0001723,0.00017122,0.00017202,0.00016128,0.00015804,0.00015844,0.00016128,0.00016014,0.00016012,0.00015782,0.00016248,0.00016346,0.00016134
522,0.0001304,0.00013024,0.0001299,0.00012902,0.00013288,0.00013236,0.00013018,0.00013002,0.00013212,0.00013184,0.000369,0.000369,0.0003694,0.0003682,0.0003688,0.0003712,0.000374,0.0003726,0.0003752,0.0003726,0.00016634,0.00016598,0.0001656,0.00016596,0.00016592,0.0001662,0.0001669,0.00016616,0.00016504,0.00016608,0.00016092,0.00015836,0.0001585,0.00016112,0.00016076,0.00016166,0.00015816,0.00016302,0.00016314,0.00016002
524,0.00013134,0.00013102,0.00013116,0.00012974,0.00013298,0.00013192,0.00013128,0.00013084,0.00013276,0.00013242,0.0003182,0.0003186,0.0003182,0.0003176,0.0003174,0.0003198,0.0003214,0.0003208,0.0003232,0.000321,0.00015998,0.00015938,0.00015928,0.00015928,0.00016034,0.0001601,0.00016068,0.00016004,0.00015904,0.00015988,0.00015954,0.00015874,0.0001585,0.00016036,0.00016248,0.0001614,0.00015798,0.00016138,0.00016272,0.00015842
526,0.00013238,0.00013274,0.00013338,0.00013146,0.00013324,0.00013422,0.00013444,0.0001333,0.00013572,0.00013436,0.0002962,0.0002954,0.0002956,0.0002948,0.0002948,0.0002964,0.0002982,0.0002982,0.0003,0.0002976,0.00015454,0.0001539,0.00015402,0.0001539,0.00015464,0.00015472,0.00015514,0.000155,0.00015376,0.00015464,0.00015886,0.00015806,0.00015802,0.0001587,0.00015922,0.0001591,0.00015688,0.00016248,0.00016142,0.0001587
528,0.00013452,0.00013378,0.00013504,0.00013368,0.00013574,0.0001374,0.00013516,0.00013504,0.00013764,0.00013596,0.0002774,0.0002774,0.0002772,0.000276,0.0002768,0.0002774,0.000279,0.0002792,0.0002806,0.0002782,0.00014892,0.00014842,0.0001485,0.00014828,0.0001493,0.00014896,0.00014956,0.00014894,0.00014794,0.00014894,0.00015648,0.00015368,0.00015542,0.0001576,0.00015726,0.00015586,0.0001538,0.00015788,0.0001555,0.0001529
530,0.000136,0.00013598,0.00013696,0.00013516,0.00013854,0.0001391,0.00013746,0.0001364,0.0001382,0.00013648,0.000258,0.0002584,0.0002564,0.0002566,0.0002568,0.0002578,0.0002586,0.0002582,0.0002594,0.000258,0.00014334,0.00014306,0.00014284,0.00014308,0.0001439,0.00014342,0.0001432,0.00014318,0.00014234,0.0001427,0.00015096,0.0001521,0.00014984,0.000151,0.00015194,0.00015014,0.00014846,0.0001532,0.00015134,0.00014894
532,0.00013766,0.0001373,0.00013816,0.0001377,0.00014064,0.0001415,0.00013916,0.0001374,0.00014048,0.00013766,0.0002422,0.0002426,0.000241,0.000241,0.0002418,0.0002408,0.0002418,0.0002424,0.0002434,0.0002412,0.00014056,0.00013992,0.00013984,0.00013966,0.00014042,0.00013988,0.00014016,0.00013998,0.0001391,0.00013946,0.0001449,0.00014776,0.0001449,0.00014628,0.00014866,0.00014478,0.00014338,0.0001495,0.0001455,0.00014218
534,0.00014018,0.00013786,0.00014022,0.0001385,0.00014194,0.00014066,0.00014018,0.00013874,0.00014142,0.0001383,0.0002282,0.0002284,0.0002274,0.0002278,0.0002288,0.0002266,0.000228,0.0002274,0.0002288,0.0002272,0.00013788,0.00013804,0.00013736,0.00013742,0.00013836,0.0001377,0.00013708,0.00013684,0.00013668,0.0001371,0.00013954,0.000141,0.00013942,0.00014018,0.0001416,0.00014044,0.00013824,0.0001432,0.00014058,0.0001376
536,0.00013986,0.0001386,0.00014076,0.00013982,0.0001424,0.00014128,0.00014084,0.0001402,0.00014162,0.0001394,0.0002162,0.0002166,0.0002152,0.000216,0.0002168,0.000215,0.0002164,0.000215,0.0002158,0.000216,0.00013638,0.00013656,0.00013598,0.00013584,0.0001372,0.00013578,0.00013546,0.00013522,0.00013494,0.00013502,0.00013516,0.00013652,0.00013642,0.00013584,0.00013382,0.00013398,0.0001331,0.00013898,0.00013566,0.0001319
538,0.0001417,0.00013924,0.0001421,0.00014048,0.00014246,0.0001429,0.00014252,0.00014232,0.00014162,0.00014044,0.000208,0.0002086,0.0002066,0.0002082,0.000208,0.0002062,0.0002076,0.0002068,0.0002068,0.0002076,0.00013568,0.00013568,0.00013514,0.00013516,0.00013652,0.00013456,0.00013494,0.00013436,0.00013428,0.00013406,0.0001313,0.00013228,0.00013204,0.00013222,0.00013076,0.00012952,0.00012886,0.00013572,0.00013108,0.00012824
540,0.00014096,0.0001404,0.00014142,0.00014108,0.0001429,0.00014204,0.00014332,0.0001428,0.00014336,0.00014078,0.0002028,0.0002028,0.0002012,0.000202,0.0002008,0.0002004,0.0002006,0.000201,0.0002008,0.000201,0.00013576,0.00013538,0.00013484,0.00013486,0.00013604,0.00013444,0.00013474,0.0001344,0.0001349,0.00013374,0.00012686,0.00012958,0.0001298,0.00013012,0.000128,0.00012748,0.00012644,0.0001309,0.00012716,0.00012604
542,0.0001395,0.00013944,0.00014156,0.00013914,0.00014188,0.00014346,0.00014158,0.00014142,0.00014282,0.00013938,0.00019716,0.00019864,0.0001959,0.00019698,0.00019734,0.00019562,0.00019594,0.00019606,0.00019684,0.000196,0.00013606,0.00013596,0.00013536,0.00013552,0.00013648,0.00013484,0.00013536,0.0001352,0.00013534,0.00013482,0.00012772,0.00012932,0.00012984,0.00012832,0.00012784,0.00012738,0.00012582,0.0001317,0.00012656,0.0001256
544,0.00013832,0.00013776,0.00013884,0.0001379,0.0001397,0.00014102,0.00014,0.00014012,0.00014002,0.00013772,0.00019474,0.00019576,0.00019338,0.00019416,0.00019464,0.00019342,0.00019438,0.00019334,0.00019322,0.00019444,0.00013724,0.00013724,0.00013702,0.00013688,0.00013822,0.00013624,0.0001365,0.0001366,0.00013708,0.00013622,0.0001289,0.00013298,0.00013128,0.0001309,0.00012928,0.00013108,0.0001283,0.0001342,0.00012888,0.00012904
546,0.00013376,0.00013262,0.00013424,0.0001333,0.00013456,0.00013564,0.00013564,0.00013612,0.00013506,0.000134,0.00019242,0.00019294,0.00019198,0.00019202,0.00019332,0.0001915,0.00019204,0.00019184,0.00019182,0.00019174,0.00013786,0.00013796,0.00013802,0.00013752,0.00013868,0.0001379,0.00013784,0.0001378,0.00013872,0.00013722,0.00013512,0.00013772,0.00013732,0.00013646,0.00013592,0.0001356,0.0001329,0.00013964,0.00013362,0.00013436
548,0.00012706,0.00012526,0.00012718,0.00012702,0.00012754,0.00012944,0.00012984,0.00012928,0.0001292,0.00012738,0.00019172,0.00019132,0.0001908,0.0001917,0.00019188,0.00018934,0.0001908,0.00019006,0.000189,0.00019052,0.00013898,0.00013916,0.00013884,0.00013854,0.0001396,0.00013914,0.00013894,0.00013896,0.00013962,0.00013864,0.00014178,0.00014504,0.00014412,0.00014304,0.00014148,0.00014252,0.0001397,0.00014554,0.0001403,0.00014086
550,0.00012092,0.00011996,0.00012074,0.00012002,0.0001203,0.00012152,0.00012228,0.00012238,0.00012194,0.0001202,0.00019064,0.0001901,0.00018942,0.00019008,0.00019098,0.00018894,0.00018928,0.00018886,0.00018904,0.00018942,0.0001402,0.00014034,0.00014036,0.00013952,0.0001411,0.00014042,0.00014018,0.00014018,0.00014084,0.00013996,0.00015268,0.00015348,0.00015448,0.00015298,0.00015176,0.00015246,0.0001493,0.00015476,0.0001501,0.00015098
552,0.00011338,0.00011248,0.00011384,0.00011266,0.0001128,0.00011562,0.00011552,0.00011512,0.00011518,0.00011316,0.00019052,0.00018908,0.00018908,0.0001885,0.00019032,0.00018774,0.00018872,0.00018674,0.00018706,0.00018894,0.00014088,0.000141,0.00014092,0.00014012,0.00014182,0.00014092,0.00014098,0.00014104,0.0001419,0.00014098,0.0001713,0.00017306,0.00017422,0.00017192,0.0001702,0.00016974,0.00016576,0.00017034,0.00016806,0.00016936
554,0.0001075,0.00010664,0.00010718,0.00010808,0.0001075,0.00010904,0.00010912,0.00010956,0.00010862,0.00010812,0.00018932,0.00018966,0.00018886,0.00018896,0.00018958,0.000188,0.0001874,0.00018734,0.00018702,0.00018794,0.00014136,0.00014146,0.00014174,0.00014074,0.00014204,0.00014176,0.00014168,0.00014134,0.00014224,0.00014162,0.0002316,0.0002334,0.0002326,0.0002316,0.000231,0.0002282,0.0002152,0.0002292,0.0002258,0.0002282
556,0.0001041,0.00010236,0.00010332,0.000103,0.00010374,0.0001056,0.00010534,0.00010486,0.0001038,0.00010424,0.00018826,0.00018872,0.00018854,0.00018788,0.00019016,0.00018756,0.00018702,0.00018638,0.00018642,0.00018732,0.00014192,0.00014184,0.00014214,0.00014124,0.00014228,0.00014194,0.00014212,0.0001419,0.00014282,0.0001422,0.000403,0.0004038,0.0004026,0.0004026,0.0004022,0.00039,0.0003458,0.0003938,0.0003904,0.000393
558,0.00010194,0.00010076,0.00010216,0.00010196,0.00010154,0.00010352,0.00010352,0.00010362,0.00010134,0.00010224,0.00018854,0.00018832,0.00018754,0.00018762,0.00019024,0.00018688,0.00018692,0.0001857,0.00018514,0.0001866,0.00014192,0.00014186,0.00014244,0.00014148,0.00014246,0.00014208,0.0001419,0.0001419,0.00014292,0.00014272,0.0007492,0.0007524,0.0007498,0.0007482,0.0007512,0.000724,0.000583,0.0007306,0.0007278,0.0007304
560,0.0001036,0.00010234,0.00010386,0.00010406,0.00010202,0.0001042,0.00010394,0.00010334,0.00010168,0.00010326,0.00018888,0.00018892,0.0001881,0.0001881,0.0001906,0.00018678,0.00018562,0.000185,0.00018508,0.00018592,0.00014234,0.00014254,0.00014288,0.00014208,0.00014276,0.00014192,0.00014156,0.0001421,0.00014264,0.00014248,0.0012782,0.0012848,0.001279,0.0012774,0.0012858,0.0012394,0.0008446,0.0012512,0.0012454,0.0012492
562,0.00010968,0.00010794,0.00010818,0.0001087,0.00010836,0.0001082,0.00010748,0.00010814,0.00010812,0.0001081,0.00018772,0.00018746,0.00018764,0.00018732,0.00019038,0.00018638,0.00018376,0.00018388,0.00018352,0.00018508,0.00014242,0.00014262,0.00014304,0.00014218,0.00014252,0.00014148,0.00014134,0.0001419,0.0001424,0.00014158,0.001997,0.002012,0.0019986,0.001998,0.002016,0.0019378,0.0010242,0.0019576,0.0019508,0.0019516
564,0.00013104,0.0001307,0.0001295,0.00013094,0.0001312,0.00012756,0.0001286,0.00012884,0.00012802,0.00012824,0.0001853,0.00018606,0.00018648,0.00018626,0.00018908,0.00018356,0.00018302,0.00018238,0.00018248,0.00018146,0.0001412,0.00014166,0.00014238,0.0001415,0.00014206,0.00014044,0.00014066,0.0001406,0.00014134,0.00014082,0.003026,0.003062,0.00303,0.003028,0.003072,0.002944,0.0011374,0.002984,0.002962,0.002966
566,0.000208,0.0002094,0.000208,0.0002088,0.0002072,0.0002016,0.0002022,0.0002024,0.0002016,0.0002026,0.00018368,0.000184,0.00018484,0.00018398,0.00018636,0.00018162,0.00018144,0.00018056,0.00018076,0.00018062,0.00014022,0.00014104,0.00014132,0.00014086,0.00014122,0.00013966,0.00013976,0.00013984,0.00013952,0.00014034,0.004132,0.004204,0.004138,0.004134,0.004224,0.004036,0.0012094,0.004114,0.004062,0.004068
568,0.000426,0.0004262,0.000426,0.0004268,0.0004264,0.0004104,0.0004108,0.000412,0.0004126,0.0004162,0.00018046,0.00018076,0.00018258,0.00018062,0.0001832,0.00018052,0.00017882,0.000179,0.0001784,0.0001779,0.00013902,0.00013988,0.00013978,0.00013986,0.00013976,0.00013844,0.00013876,0.00013882,0.00013894,0.0001394,0.005252,0.005374,0.00526,0.005252,0.005408,0.00516,0.0012656,0.005284,0.005188,0.005196
570,0.0008434,0.0008438,0.0008436,0.000845,0.000842,0.0008176,0.0008182,0.0008206,0.0008226,0.000828,0.00017656,0.000177,0.00017842,0.00017666,0.00017982,0.00017664,0.00017622,0.00017564,0.00017546,0.00017534,0.00013692,0.00013784,0.00013784,0.00013786,0.00013736,0.00013668,0.00013724,0.00013756,0.00013752,0.0001377,0.006344,0.006524,0.00636,0.006346,0.006572,0.006266,0.0013116,0.006452,0.006302,0.006314
572,0.0014524,0.0014546,0.0014534,0.0014568,0.001452,0.0014206,0.0014234,0.0014248,0.001432,0.0014366,0.00017316,0.00017276,0.0001747,0.00017342,0.00017554,0.00017336,0.00017304,0.00017228,0.00017348,0.00017254,0.0001349,0.00013524,0.00013578,0.00013566,0.00013516,0.00013514,0.0001355,0.00013592,0.00013542,0.00013578,0.007348,0.007576,0.007366,0.00735,0.007636,0.007298,0.0013556,0.007536,0.007336,0.00735
574,0.0023,0.002302,0.002302,0.002306,0.0023,0.002262,0.002264,0.002268,0.00228,0.002286,0.00017122,0.00017156,0.00017394,0.00017188,0.0001744,0.00017316,0.00017212,0.00017186,0.00017218,0.00017176,0.00013194,0.0001324,0.00013312,0.00013274,0.00013238,0.0001326,0.00013346,0.00013374,0.0001333,0.00013396,0.008238,0.008506,0.00826,0.00824,0.008568,0.008222,0.0013996,0.008496,0.008258,0.008274
576,0.003364,0.003368,0.003368,0.00337,0.003366,0.003324,0.003326,0.003332,0.003342,0.00335,0.00017596,0.00017654,0.00017872,0.00017734,0.00017872,0.00017772,0.00017704,0.00017678,0.00017718,0.00017672,0.00013078,0.00013106,0.00013154,0.00013116,0.00013092,0.00013122,0.00013168,0.00013238,0.00013218,0.0001324,0.00897,0.009252,0.008998,0.008974,0.009318,0.008984,0.0014416,0.009268,0.009018,0.009036
578,0.00442,0.004424,0.004426,0.004428,0.00442,0.004374,0.004378,0.004384,0.004396,0.0044,0.00019052,0.00019136,0.00019276,0.00019182,0.00019416,0.00019198,0.0001905,0.00019164,0.00019182,0.00019034,0.00013386,0.00013396,0.00013452,0.00013444,0.00013406,0.00013402,0.0001345,0.00013502,0.00013454,0.00013548,0.009486,0.009744,0.009514,0.009492,0.0098,0.009514,0.0014788,0.009772,0.009544,0.009558
580,0.005464,0.005468,0.005472,0.005476,0.005468,0.005414,0.005418,0.005422,0.005436,0.00544,0.0002206,0.0002204,0.0002238,0.0002218,0.0002234,0.0002204,0.0002202,0.0002202,0.00022,0.0002206,0.00014534,0.00014598,0.0001458,0.0001459,0.0001453,0.00014438,0.00014496,0.00014592,0.0001449,0.00014572,0.009844,0.010028,0.009868,0.009848,0.010062,0.00987,0.0015182,0.010048,0.009892,0.009902
582,0.006434,0.00644,0.006444,0.006446,0.006438,0.006378,0.006378,0.006382,0.006396,0.0064,0.0002778,0.0002776,0.0002796,0.000279,0.0002804,0.000275,0.0002746,0.0002744,0.0002746,0.0002746,0.0001679,0.00016854,0.00016856,0.00016864,0.0001681,0.0001665,0.00016618,0.00016784,0.00016602,0.00016716,0.010042,0.010124,0.010064,0.010048,0.010134,0.01005,0.001557,0.010128,0.010068,0.010068
584,0.00725,0.007256,0.007262,0.007264,0.007258,0.00719,0.00719,0.007192,0.007206,0.00721,0.0003902,0.0003906,0.0003918,0.0003914,0.0003932,0.0003806,0.0003818,0.0003834,0.0003826,0.000385,0.0002088,0.0002088,0.0002088,0.000209,0.0002082,0.0002048,0.0002044,0.0002058,0.000205,0.0002062,0.01011,0.010096,0.010124,0.010118,0.010084,0.01009,0.001592,0.010072,0.010102,0.010094
586,0.007872,0.00788,0.007886,0.007886,0.00788,0.007806,0.00781,0.007808,0.007826,0.007826,0.0006488,0.0006492,0.0006492,0.0006488,0.0006512,0.0006298,0.00063,0.0006356,0.0006354,0.0006358,0.000288,0.0002882,0.0002874,0.0002884,0.0002876,0.000281,0.0002804,0.0002822,0.0002816,0.0002832,0.010034,0.009934,0.01004,0.01004,0.009914,0.009978,0.0016308,0.009894,0.009988,0.009976
588,0.008166,0.008172,0.008178,0.008178,0.008172,0.008098,0.008104,0.008102,0.00812,0.008116,0.0009874,0.0009874,0.0009874,0.0009876,0.00099,0.000962,0.0009618,0.0009704,0.000968,0.0009692,0.0003974,0.0003968,0.0003968,0.0003976,0.0003962,0.0003862,0.0003864,0.0003888,0.0003882,0.000389,0.009882,0.009742,0.009884,0.00989,0.009716,0.009808,0.0016722,0.009694,0.009818,0.009798
590,0.008156,0.008162,0.00817,0.00817,0.008162,0.008098,0.008104,0.0081,0.00812,0.008112,0.0013152,0.001315,0.0013146,0.001316,0.001318,0.0012882,0.0012906,0.0012992,0.0012962,0.0012964,0.000537,0.0005362,0.0005358,0.0005368,0.0005354,0.0005228,0.000523,0.0005258,0.000525,0.0005264,0.00965,0.009492,0.009646,0.009658,0.00946,0.009566,0.0017104,0.009442,0.009576,0.009556
592,0.007738,0.007746,0.007752,0.007752,0.007746,0.0077,0.007708,0.007702,0.00772,0.00771,0.0015296,0.0015292,0.0015298,0.0015308,0.0015332,0.0015088,0.0015114,0.0015182,0.0015154,0.0015138,0.0007094,0.000708,0.0007076,0.0007088,0.0007078,0.0006922,0.0006926,0.0006954,0.0006944,0.0006958,0.009354,0.009198,0.00935,0.00936,0.009168,0.009272,0.0017458,0.009154,0.009278,0.00926
594,0.00688,0.006888,0.006896,0.006894,0.00689,0.006868,0.006878,0.00687,0.006886,0.00687,0.0016112,0.001613,0.001612,0.0016134,0.0016158,0.0015968,0.001599,0.0016022,0.0016022,0.0016002,0.0009142,0.0009128,0.0009124,0.0009132,0.0009122,0.0008936,0.0008944,0.0008976,0.0008974,0.0008984,0.009012,0.00887,0.009012,0.00902,0.008842,0.00894,0.0017804,0.008832,0.008948,0.008928
596,0.005584,0.005594,0.0056,0.005596,0.005594,0.0056,0.005608,0.005598,0.005608,0.005594,0.0016002,0.0016006,0.001602,0.001601,0.001601,0.001588,0.001591,0.0015924,0.0015924,0.0015918,0.0011634,0.0011628,0.0011618,0.0011638,0.0011624,0.0011402,0.0011428,0.001145,0.0011454,0.0011456,0.0086,0.008478,0.008602,0.00861,0.008452,0.00854,0.0018186,0.008444,0.008544,0.008526
598,0.00434,0.004348,0.004356,0.00435,0.004348,0.004366,0.004372,0.004362,0.00437,0.004356,0.0015466,0.0015464,0.0015468,0.001548,0.0015478,0.0015376,0.0015394,0.0015394,0.0015404,0.0015398,0.0014082,0.0014076,0.001407,0.0014088,0.001407,0.0013828,0.0013858,0.0013886,0.0013892,0.0013884,0.008218,0.00812,0.008224,0.008228,0.008094,0.008166,0.0018522,0.008086,0.008172,0.008158
600,0.003232,0.003238,0.003242,0.00324,0.003236,0.00326,0.003264,0.003256,0.003262,0.00325,0.001497,0.0014954,0.0014956,0.0014964,0.001496,0.001486,0.001489,0.0014886,0.0014908,0.0014898,0.001656,0.0016554,0.001655,0.0016574,0.0016556,0.0016284,0.0016326,0.0016344,0.0016358,0.0016354,0.007852,0.00777,0.007858,0.007862,0.007744,0.007808,0.0018858,0.007748,0.007816,0.007808
602,0.002302,0.002306,0.00231,0.002308,0.002306,0.002328,0.002332,0.002326,0.00233,0.00232,0.0015264,0.001525,0.0015242,0.0015254,0.001525,0.0015104,0.0015144,0.0015156,0.001517,0.0015182,0.0018972,0.0018968,0.001896,0.0018982,0.001897,0.0018696,0.0018746,0.001876,0.0018774,0.001878,0.0075,0.007434,0.00751,0.007512,0.007414,0.00747,0.0019174,0.007426,0.00748,0.007472
604,0.0015576,0.0015602,0.001563,0.0015606,0.0015582,0.00158,0.0015848,0.0015806,0.0015822,0.0015734,0.0017488,0.0017464,0.0017444,0.0017476,0.0017472,0.0017224,0.0017272,0.0017392,0.0017344,0.001737,0.002124,0.002124,0.002124,0.002126,0.002124,0.002098,0.002106,0.002106,0.002108,0.002108,0.007158,0.007108,0.007166,0.00717,0.007084,0.007142,0.0019502,0.007112,0.007156,0.007148
606,0.0009532,0.000956,0.000958,0.0009566,0.0009534,0.0009722,0.0009732,0.00097,0.0009728,0.0009654,0.002278,0.002276,0.002272,0.002278,0.002278,0.002242,0.00225,0.002278,0.00226,0.002266,0.00234,0.00234,0.00234,0.00234,0.00234,0.00232,0.00233,0.002326,0.00233,0.002328,0.00676,0.006716,0.006766,0.00677,0.006694,0.006766,0.0019822,0.006738,0.006778,0.006772
608,0.0006214,0.0006232,0.000625,0.0006234,0.000622,0.0006328,0.0006336,0.0006304,0.0006356,0.0006292,0.003026,0.003022,0.00302,0.003026,0.003026,0.002984,0.002994,0.003052,0.00301,0.003014,0.002472,0.002472,0.002472,0.002472,0.002472,0.00246,0.00247,0.002468,0.00247,0.002468,0.00629,0.006244,0.006298,0.0063,0.006226,0.006322,0.002008,0.006292,0.00633,0.006322
610,0.0004872,0.0004898,0.0004918,0.0004892,0.0004884,0.0004948,0.000495,0.0004932,0.000497,0.0004926,0.003878,0.00387,0.003872,0.003876,0.00388,0.003838,0.003848,0.00395,0.003864,0.003868,0.002496,0.002494,0.002494,0.002496,0.002496,0.002498,0.002504,0.002504,0.002506,0.002502,0.005692,0.005644,0.005696,0.0057,0.005624,0.005744,0.002036,0.005708,0.005742,0.005734
612,0.0004358,0.0004394,0.0004422,0.00044,0.000439,0.0004428,0.000442,0.0004414,0.0004448,0.000441,0.004768,0.004756,0.00476,0.004768,0.004772,0.004728,0.004742,0.004892,0.004758,0.00476,0.002402,0.0024,0.002402,0.002402,0.002402,0.002418,0.002416,0.002422,0.002422,0.002416,0.004974,0.004926,0.00498,0.004982,0.004912,0.005034,0.00206,0.004992,0.005026,0.005018
614,0.0004148,0.000418,0.0004202,0.0004196,0.0004186,0.0004198,0.0004204,0.000419,0.0004232,0.0004186,0.005636,0.00562,0.005628,0.005636,0.005642,0.005592,0.00561,0.005816,0.005626,0.005626,0.002196,0.002194,0.002196,0.002196,0.002196,0.002222,0.002216,0.002222,0.002222,0.002216,0.004208,0.004172,0.004214,0.004216,0.004162,0.004266,0.002086,0.004232,0.004256,0.004248
616,0.00041,0.0004122,0.0004134,0.0004112,0.0004102,0.000413,0.0004114,0.0004118,0.0004142,0.0004104,0.006488,0.006464,0.00648,0.006488,0.006494,0.006432,0.006456,0.00672,0.00647,0.006468,0.0018652,0.0018634,0.001865,0.0018654,0.001866,0.0018934,0.0018842,0.0018918,0.0018904,0.0018844,0.003378,0.003356,0.003384,0.003386,0.003348,0.003422,0.002114,0.003398,0.003412,0.003406
618,0.0004166,0.0004162,0.0004182,0.0004168,0.0004186,0.0004136,0.0004132,0.000414,0.0004178,0.0004118,0.007142,0.00711,0.007134,0.007144,0.007148,0.007072,0.0071,0.007378,0.007112,0.00711,0.001485,0.0014832,0.0014852,0.0014856,0.001486,0.0015092,0.0015006,0.001506,0.0015036,0.0014988,0.002602,0.002588,0.002606,0.002608,0.00258,0.00263,0.002144,0.002616,0.00262,0.002618
620,0.0004362,0.0004358,0.000437,0.0004354,0.000437,0.0004314,0.0004302,0.0004308,0.000434,0.00043,0.00754,0.00751,0.007536,0.007542,0.007548,0.007462,0.007486,0.007704,0.007498,0.007494,0.0011042,0.0011034,0.001105,0.001105,0.0011064,0.0011226,0.0011168,0.00112,0.0011172,0.0011134,0.0019092,0.0019008,0.001914,0.0019142,0.0018988,0.0019312,0.002126,0.001924,0.0019178,0.0019182
622,0.0004754,0.0004754,0.0004768,0.0004766,0.0004766,0.0004674,0.000465,0.000467,0.00047,0.0004676,0.007738,0.007716,0.007732,0.007738,0.007744,0.00765,0.007666,0.00777,0.007678,0.007674,0.0007542,0.0007536,0.000755,0.000755,0.0007564,0.000766,0.0007632,0.0007644,0.0007622,0.000759,0.0013014,0.0012934,0.001304,0.001303,0.0012936,0.0013144,0.0019012,0.0013096,0.0013024,0.0013032
624,0.00054,0.000539,0.000543,0.0005416,0.0005418,0.0005288,0.0005258,0.0005282,0.0005308,0.000529,0.007756,0.007748,0.007752,0.007758,0.007762,0.007662,0.007664,0.007648,0.00768,0.007676,0.0005284,0.000529,0.0005292,0.0005292,0.0005306,0.0005296,0.0005288,0.0005298,0.0005294,0.000527,0.0008802,0.000879,0.0008842,0.0008844,0.000877,0.0008824,0.001426,0.0008812,0.0008762,0.0008742
626,0.00064,0.0006396,0.0006426,0.0006422,0.0006412,0.0006272,0.0006264,0.0006282,0.0006336,0.0006284,0.007616,0.007624,0.007612,0.007618,0.007624,0.007524,0.007514,0.00741,0.00753,0.007524,0.0005504,0.0005502,0.000549,0.0005506,0.0005514,0.0005354,0.0005362,0.0005372,0.0005404,0.0005384,0.0007914,0.000794,0.0007936,0.000794,0.0007936,0.0007742,0.0010172,0.0007822,0.0007792,0.0007784
628,0.0007604,0.0007638,0.000767,0.000766,0.000763,0.0007492,0.0007484,0.0007518,0.0007538,0.000751,0.007368,0.007382,0.007364,0.007368,0.007376,0.007288,0.00727,0.007138,0.007286,0.00728,0.0008016,0.0008012,0.0008002,0.0008018,0.0008026,0.0007766,0.000778,0.00078,0.0007836,0.0007828,0.0010148,0.0010184,0.0010176,0.0010212,0.0010178,0.000988,0.0009878,0.0010002,0.000992,0.0009984
630,0.0008896,0.000892,0.0008924,0.0008944,0.0008916,0.000877,0.0008778,0.000879,0.0008818,0.00088,0.007074,0.00709,0.00707,0.007074,0.007082,0.007016,0.006998,0.006866,0.007012,0.007006,0.0011376,0.001137,0.0011356,0.0011376,0.001138,0.0011086,0.0011118,0.001113,0.0011174,0.0011158,0.0013592,0.001362,0.0013598,0.0013636,0.0013614,0.0013314,0.0011706,0.0013416,0.0013344,0.001339
632,0.001018,0.0010214,0.0010236,0.0010244,0.0010234,0.0010102,0.00101,0.0010124,0.0010152,0.0010132,0.006746,0.006762,0.006746,0.00675,0.006756,0.006722,0.006706,0.006584,0.006714,0.006708,0.0014976,0.001497,0.0014958,0.0014978,0.0014986,0.00147,0.0014742,0.0014748,0.0014792,0.001478,0.0017324,0.001739,0.0017338,0.0017382,0.0017378,0.0017094,0.001408,0.001719,0.0017134,0.0017152
634,0.0011492,0.001154,0.0011556,0.0011584,0.0011576,0.0011452,0.0011464,0.00115,0.0011552,0.0011502,0.006408,0.00642,0.006408,0.00641,0.006416,0.006416,0.006398,0.006294,0.006408,0.0064,0.0018606,0.001861,0.0018592,0.0018616,0.0018616,0.0018374,0.0018434,0.0018426,0.001847,0.0018456,0.002114,0.002124,0.002114,0.002116,0.002122,0.002096,0.0016372,0.002104,0.0021,0.002102
636,0.0012928,0.0012946,0.0012962,0.0013002,0.0012994,0.001296,0.001293,0.0012956,0.0013008,0.0012986,0.006038,0.006046,0.006036,0.00604,0.006044,0.006074,0.006058,0.005976,0.006066,0.00606,0.002252,0.002252,0.00225,0.002254,0.002252,0.002234,0.002242,0.00224,0.002246,0.002244,0.002524,0.002536,0.002528,0.00253,0.002536,0.002518,0.0018604,0.002528,0.00252,0.002526
638,0.0014194,0.0014208,0.001422,0.001428,0.0014266,0.0014268,0.0014252,0.0014292,0.0014308,0.0014304,0.005718,0.005724,0.005718,0.005722,0.005728,0.005768,0.005756,0.00569,0.005764,0.005758,0.002596,0.002596,0.002594,0.002598,0.002598,0.002586,0.002594,0.00259,0.002596,0.002596,0.002888,0.002898,0.002894,0.0029,0.002898,0.00289,0.00204,0.002904,0.0029,0.002904
640,0.001541,0.0015436,0.0015466,0.0015524,0.0015522,0.0015516,0.00155,0.0015536,0.001556,0.0015556,0.005448,0.005454,0.00545,0.005454,0.005458,0.005504,0.005492,0.005444,0.005502,0.005498,0.002892,0.00289,0.00289,0.002892,0.002892,0.002886,0.002894,0.002892,0.002898,0.002896,0.003184,0.003194,0.003192,0.003196,0.003196,0.003198,0.002192,0.00321,0.0032,0.003208
642,0.0016642,0.0016674,0.0016672,0.001673,0.0016734,0.0016726,0.0016718,0.0016736,0.001679,0.0016778,0.005216,0.005218,0.005216,0.005218,0.005224,0.005264,0.005252,0.00522,0.005264,0.00526,0.003112,0.00311,0.00311,0.003112,0.003112,0.00311,0.00312,0.003118,0.003122,0.003122,0.00337,0.003376,0.003376,0.003382,0.003372,0.003388,0.002324,0.0034,0.00339,0.003396
644,0.0017834,0.0017884,0.0017864,0.0017942,0.0017906,0.0017894,0.0017874,0.0017896,0.0017952,0.0017966,0.005018,0.00502,0.00502,0.005022,0.005028,0.005056,0.005046,0.005022,0.005058,0.005054,0.00325,0.003246,0.003248,0.00325,0.00325,0.003252,0.003258,0.00326,0.003264,0.003262,0.003434,0.003442,0.00344,0.003448,0.003436,0.003452,0.00245,0.003464,0.003452,0.00346
646,0.0019154,0.0019212,0.001924,0.0019268,0.0019262,0.00192,0.0019184,0.0019214,0.0019262,0.0019238,0.004826,0.004824,0.004826,0.004826,0.004832,0.004848,0.004838,0.00482,0.004848,0.004844,0.00331,0.003308,0.003312,0.003312,0.003312,0.003314,0.003318,0.003322,0.003324,0.003322,0.003432,0.003438,0.003438,0.003442,0.003434,0.003444,0.002572,0.003452,0.003444,0.003446
648,0.002032,0.002036,0.002036,0.002042,0.002042,0.00203,0.002032,0.00203,0.002034,0.002034,0.004662,0.004664,0.004666,0.004666,0.004672,0.004676,0.004668,0.004654,0.004674,0.004668,0.003322,0.003318,0.00332,0.003322,0.003322,0.003322,0.003322,0.003326,0.003328,0.003324,0.003404,0.003414,0.003412,0.003414,0.003408,0.003416,0.00267,0.00342,0.00341,0.003408
650,0.002114,0.00212,0.00212,0.002124,0.002124,0.00211,0.002112,0.002108,0.00211,0.002112,0.00448,0.004482,0.004482,0.004482,0.004486,0.004486,0.004476,0.004458,0.004478,0.004472,0.00329,0.003288,0.003288,0.00329,0.003288,0.003286,0.003284,0.00329,0.00329,0.003284,0.003344,0.003348,0.003348,0.003354,0.003346,0.003348,0.002762,0.003346,0.003338,0.00334
652,0.002164,0.002168,0.002172,0.002174,0.002172,0.002156,0.00216,0.002152,0.002156,0.002154,0.004248,0.00425,0.00425,0.00425,0.004256,0.004248,0.004236,0.004218,0.004238,0.00423,0.00319,0.003186,0.003188,0.00319,0.003188,0.003184,0.003178,0.003184,0.003184,0.003178,0.003214,0.003218,0.003216,0.003224,0.003214,0.003214,0.002838,0.003206,0.003204,0.003206
654,0.002194,0.002196,0.002196,0.002202,0.0022,0.002182,0.002186,0.002176,0.00218,0.00218,0.004004,0.004006,0.004006,0.004008,0.004012,0.004,0.003986,0.00397,0.003986,0.003978,0.003004,0.003,0.003004,0.003004,0.003002,0.003,0.002992,0.002996,0.002994,0.002988,0.002998,0.002998,0.002998,0.003004,0.00299,0.003,0.002902,0.002988,0.002986,0.002986
656,0.00222,0.00222,0.00222,0.002226,0.002222,0.002206,0.002204,0.0022,0.0022,0.002204,0.003768,0.00377,0.00377,0.003772,0.003776,0.003758,0.003746,0.003736,0.00375,0.00374,0.002684,0.00268,0.002682,0.002682,0.002682,0.002682,0.002672,0.002678,0.002676,0.002672,0.002652,0.002656,0.002652,0.002656,0.002646,0.002658,0.002918,0.002646,0.002644,0.00264
658,0.002248,0.002248,0.002248,0.00225,0.00225,0.00223,0.002228,0.002224,0.00223,0.00223,0.003598,0.003598,0.0036,0.003602,0.003604,0.003584,0.003574,0.003564,0.003578,0.003572,0.002326,0.002324,0.00233,0.002326,0.002326,0.00233,0.00232,0.002326,0.002324,0.00232,0.002298,0.0023,0.002296,0.0023,0.0023,0.002306,0.002808,0.002298,0.002296,0.002296
660,0.002274,0.002274,0.002276,0.002276,0.002278,0.002256,0.002256,0.002252,0.00226,0.00226,0.003456,0.003458,0.003456,0.003462,0.003462,0.00344,0.003432,0.003424,0.003438,0.003436,0.0019568,0.0019542,0.0019588,0.001957,0.0019556,0.0019604,0.001952,0.0019578,0.0019554,0.0019526,0.0019376,0.0019422,0.0019386,0.0019418,0.0019416,0.0019464,0.002532,0.001943,0.001941,0.0019378
662,0.002294,0.002292,0.002294,0.002294,0.002296,0.002276,0.002274,0.002272,0.00228,0.002278,0.003326,0.00333,0.00333,0.003332,0.003336,0.003312,0.003306,0.003302,0.003314,0.003308,0.0015858,0.0015848,0.0015884,0.0015858,0.001585,0.0015922,0.0015866,0.0015902,0.0015886,0.0015858,0.0015836,0.001585,0.0015848,0.0015834,0.0015818,0.0015918,0.0021,0.0015876,0.0015882,0.0015834
664,0.002278,0.002278,0.002278,0.002282,0.00228,0.002262,0.002262,0.002264,0.002268,0.002266,0.00317,0.003174,0.003176,0.003178,0.003182,0.00316,0.003156,0.003152,0.003166,0.003158,0.0012042,0.0012032,0.0012064,0.001203,0.0012026,0.0012128,0.0012076,0.0012112,0.0012098,0.0012074,0.0012156,0.0012044,0.001211,0.001212,0.0012146,0.0012232,0.00156,0.0012242,0.0012232,0.0012156
666,0.002172,0.00217,0.002172,0.002174,0.002174,0.002162,0.002164,0.002166,0.002166,0.002164,0.002936,0.002938,0.00294,0.00294,0.002942,0.00293,0.00293,0.002926,0.002934,0.002928,0.0008358,0.0008338,0.0008374,0.0008338,0.0008342,0.000845,0.0008442,0.0008452,0.0008422,0.0008408,0.0008486,0.0008514,0.0008462,0.000849,0.0008502,0.0008684,0.001053,0.0008666,0.0008648,0.0008598
668,0.0019848,0.0019838,0.0019816,0.0019854,0.0019848,0.0019806,0.0019826,0.0019846,0.001984,0.0019796,0.00263,0.002634,0.002634,0.002632,0.002636,0.002632,0.002636,0.002628,0.002638,0.002626,0.0005352,0.0005358,0.0005382,0.000534,0.0005348,0.0005462,0.0005434,0.0005452,0.0005436,0.0005422,0.0005518,0.0005544,0.000553,0.000551,0.0005604,0.0005756,0.000678,0.000571,0.0005716,0.0005646
670,0.0017486,0.0017478,0.0017478,0.0017484,0.001748,0.0017536,0.0017532,0.0017528,0.0017514,0.001747,0.00228,0.002284,0.002284,0.002284,0.002286,0.00229,0.002292,0.002282,0.00229,0.00228,0.0003198,0.0003194,0.0003222,0.0003184,0.0003186,0.0003288,0.0003252,0.000327,0.0003252,0.0003242,0.0003434,0.00035,0.0003426,0.0003346,0.0003436,0.0003622,0.0004162,0.0003574,0.000357,0.0003544
672,0.0014828,0.001486,0.0014828,0.0014836,0.0014824,0.0014908,0.0014928,0.0014914,0.001492,0.0014894,0.001912,0.001916,0.0019136,0.0019172,0.0019178,0.0019262,0.0019292,0.0019222,0.0019262,0.0019176,0.0002068,0.0002062,0.0002088,0.0002052,0.0002052,0.0002122,0.0002092,0.000211,0.0002086,0.0002074,0.0002354,0.0002394,0.0002284,0.0002294,0.000233,0.0002474,0.0002744,0.0002482,0.0002488,0.0002434
674,0.0011748,0.0011728,0.0011704,0.0011714,0.0011758,0.0011882,0.0011904,0.0011866,0.0011854,0.001182,0.001503,0.0015046,0.0015034,0.001504,0.0015026,0.0015198,0.0015234,0.0015106,0.001518,0.0015088,0.00016156,0.00016232,0.00016244,0.00015978,0.0001611,0.00016488,0.00016292,0.0001637,0.0001635,0.00016218,0.00019328,0.00018366,0.00019018,0.0001862,0.00019692,0.0002026,0.0002144,0.000201,0.0002034,0.00019662
676,0.0008878,0.0008874,0.0008826,0.0008852,0.0008872,0.0009048,0.0009052,0.000902,0.0008996,0.0008962,0.0011362,0.0011352,0.0011374,0.0011358,0.0011392,0.0011548,0.0011568,0.0011492,0.001152,0.0011468,0.00014694,0.00014718,0.0001487,0.00014604,0.00014564,0.00015026,0.00014702,0.00014964,0.00014898,0.00014688,0.00018066,0.0001714,0.0001705,0.00017516,0.0001752,0.00018364,0.00019582,0.00018674,0.00019086,0.00018466
678,0.0006222,0.0006208,0.0006214,0.0006206,0.0006222,0.0006402,0.0006414,0.0006366,0.0006352,0.0006326,0.0008038,0.000802,0.0008048,0.0008056,0.0008058,0.0008228,0.0008264,0.0008208,0.0008218,0.0008196,0.00013906,0.00013988,0.00013952,0.00013796,0.00013732,0.00014346,0.00013986,0.00014254,0.00014144,0.00013906,0.0001736,0.00016752,0.0001678,0.00016732,0.00017382,0.00017846,0.0001862,0.00017818,0.00018404,0.00017552
680,0.0004016,0.0003974,0.0003934,0.0003968,0.000396,0.0004114,0.0004152,0.0004146,0.0004092,0.0004084,0.000527,0.0005238,0.0005258,0.0005262,0.0005252,0.0005426,0.0005466,0.0005414,0.0005416,0.0005384,0.00013372,0.000134,0.00013484,0.00013228,0.00013088,0.00013692,0.00013478,0.0001366,0.0001367,0.000133,0.0001691,0.00016406,0.00016636,0.0001596,0.00016914,0.00017348,0.00018014,0.00017934,0.00018784,0.00016846
682,0.0002606,0.0002528,0.0002474,0.0002502,0.0002522,0.0002654,0.0002656,0.0002638,0.0002612,0.0002576,0.000346,0.0003404,0.0003426,0.0003428,0.0003458,0.0003532,0.0003568,0.0003522,0.0003574,0.0003516,0.00013114,0.00013092,0.00013162,0.00012956,0.00012908,0.00013458,0.00013238,0.00013332,0.00013212,0.00013122,0.00016838,0.00016372,0.0001629,0.00016142,0.00015798,0.00017172,0.00017816,0.00017692,0.0001837,0.00017232
684,0.0001908,0.00018608,0.00018534,0.00018694,0.00018554,0.00019794,0.00019474,0.00019308,0.00019114,0.00018674,0.0002602,0.0002554,0.0002566,0.0002572,0.0002568,0.0002638,0.0002684,0.0002642,0.000265,0.0002652,0.0001271,0.00012702,0.00012686,0.00012736,0.00012404,0.00013,0.00012918,0.00013154,0.00012948,0.00012986,0.00016974,0.00016102,0.00016178,0.00016546,0.00015848,0.0001671,0.00017524,0.00017738,0.00017866,0.0001665
686,0.00017134,0.00016682,0.0001651,0.00016718,0.0001662,0.00017244,0.00017134,0.00017036,0.00016718,0.00016964,0.000229,0.000224,0.0002276,0.000226,0.0002234,0.00023,0.0002366,0.0002362,0.0002312,0.000231,0.00012098,0.0001217,0.00012142,0.0001203,0.00011986,0.00012434,0.00012422,0.00012544,0.00012406,0.00012366,0.00016304,0.00015858,0.00015676,0.0001559,0.00015646,0.00016332,0.00016916,0.00017508,0.00017778,0.0001638
688,0.00015848,0.00015796,0.00015472,0.00015644,0.00015358,0.00016036,0.0001589,0.00015792,0.00015864,0.000155,0.0002096,0.0002054,0.0002054,0.0002058,0.000206,0.0002118,0.0002148,0.0002174,0.0002106,0.0002124,0.0001148,0.00011602,0.00011534,0.00011396,0.00011256,0.00011678,0.00011604,0.00011912,0.00011902,0.00011668,0.00016216,0.00015372,0.00015138,0.0001538,0.000148,0.00015618,0.00016262,0.0001715,0.00016894,0.0001564
690,0.00015112,0.00015014,0.00014434,0.00014592,0.00014468,0.0001501,0.000149,0.00014676,0.00014878,0.00014456,0.0001941,0.00019122,0.00019024,0.00019008,0.00019148,0.00019288,0.0001997,0.0002014,0.00019466,0.00019496,0.00010952,0.0001103,0.00010982,0.0001091,0.0001065,0.0001103,0.0001095,0.00011242,0.00011124,0.00010976,0.00015734,0.0001515,0.00015116,0.00015238,0.00014652,0.00014854,0.00015544,0.00015644,0.00016436,0.000146
692,0.00014582,0.00013976,0.00013518,0.00013396,0.00013878,0.00014244,0.00014052,0.00014016,0.0001404,0.0001324,0.00017832,0.00017844,0.0001727,0.00017378,0.0001709,0.00017716,0.00018432,0.0001835,0.00017778,0.00018024,0.00010162,0.00010154,0.00010046,0.00010204,0.00010126,0.0001034,0.00010108,0.00010424,0.000102,0.00010142,0.0001529,0.00014194,0.00014106,0.00014048,0.00014094,0.0001412,0.0001465,0.00015864,0.0001595,0.0001378
694,0.00013464,0.00013314,0.00012758,0.00012446,0.0001288,0.00012994,0.00013342,0.0001255,0.00012872,0.0001254,0.0001628,0.00016378,0.0001571,0.00015856,0.00015806,0.0001623,0.00016336,0.00016634,0.00016252,0.00016488,9.364e-05,9.414e-05,9.394e-05,9.332e-05,9.134e-05,9.398e-05,9.364e-05,9.538e-05,9.508e-05,9.392e-05,0.00013988,0.0001333,0.00013548,0.00013374,0.00013398,0.00013398,0.0001375,0.00014436,0.0001483,0.00012624
696,0.00012444,0.0001227,0.000121,0.00012106,0.00011928,0.00011828,0.00012446,0.00011582,0.0001227,0.00011654,0.00014886,0.00014784,0.00014478,0.00014692,0.00014396,0.00014596,0.00014832,0.00015246,0.00014996,0.00015318,8.648e-05,8.748e-05,8.648e-05,8.758e-05,8.48e-05,8.638e-05,8.63e-05,8.87e-05,8.738e-05,8.534e-05,0.00013306,0.00013016,0.00013206,0.00013004,0.00012998,0.0001316,0.00012956,0.00014114,0.00013914,0.00012472
698,0.00011718,0.00011862,0.0001151,0.00011158,0.00011368,0.00011326,0.00011318,0.00010682,0.0001122,0.00010732,0.00013956,0.0001388,0.00013644,0.00013712,0.00013418,0.00013586,0.00014052,0.0001408,0.000136,0.00014286,8.162e-05,8.098e-05,8.192e-05,8.252e-05,7.87e-05,7.9e-05,7.956e-05,8.358e-05,8.084e-05,8e-05,0.00013418,0.00012708,0.00012548,0.00012446,0.00012852,0.0001248,0.0001224,0.00013442,0.0001338,0.00011692
700,0.00010992,0.00011272,0.00010552,0.00010662,0.00011236,0.00010862,0.00010668,9.934e-05,0.00010734,0.00010268,0.00013416,0.00013068,0.0001297,0.00012544,0.00012358,0.00012318,0.00012622,0.00013508,0.000126,0.00013256,7.438e-05,7.622e-05,7.514e-05,7.752e-05,7.268e-05,7.416e-05,7.548e-05,7.748e-05,7.568e-05,7.536e-05,0.00012874,0.00011458,0.00012136,0.00012568,0.0001203,0.00012022,0.00011612,0.00013028,0.00012564,0.00010678
702,0.00010672,0.00010924,0.00010472,0.0001022,0.00010534,9.892e-05,0.00010384,9.364e-05,9.9e-05,9.674e-05,0.00012512,0.00011724,0.00011668,0.00011914,0.00011644,0.00011558,0.00011936,0.00012214,0.00011522,0.00012342,7.114e-05,7.048e-05,6.998e-05,7.172e-05,6.942e-05,6.826e-05,7.088e-05,7.176e-05,7.022e-05,7.07e-05,0.00012828,0.00011226,0.0001177,0.00012156,0.0001196,0.00011358,0.00011242,0.00012328,0.0001192,0.00010216
704,0.00010252,0.00010194,9.84e-05,9.868e-05,0.00010184,9.974e-05,9.908e-05,9.014e-05,9.59e-05,9.174e-05,0.00011828,0.00011366,0.00011188,0.00011266,0.00011316,0.00010942,0.00011196,0.00011794,0.00011326,0.0001169,6.688e-05,6.608e-05,6.612e-05,6.852e-05,6.542e-05,6.574e-05,6.646e-05,7e-05,6.76e-05,6.738e-05,0.00011958,0.00011634,0.00010826,0.00011874,0.00010722,0.00011108,0.00010766,0.00012418,0.00011302,0.00010604
706,0.0001001,9.95e-05,9.264e-05,9.434e-05,9.806e-05,9.124e-05,9.014e-05,8.094e-05,9.198e-05,8.812e-05,0.00011336,0.00011274,0.00010896,0.00010686,0.0001081,0.0001023,0.00010144,0.00010826,0.00010822,0.00011228,6.352e-05,6.362e-05,6.184e-05,6.58e-05,6.144e-05,6.144e-05,6.418e-05,6.748e-05,6.382e-05,6.418e-05,0.00011298,0.00010572,0.00010644,0.0001155,0.00010812,0.00010694,0.00010474,0.00012102,0.00010712,0.00010344
708,9.204e-05,0.00010044,9.056e-05,9.268e-05,0.00010124,8.628e-05,8.958e-05,7.856e-05,9.002e-05,8.406e-05,0.00011136,0.00010772,0.00010456,0.00010216,0.00010638,9.786e-05,0.00010106,0.00010764,0.0001016,0.00011264,6.004e-05,6.088e-05,5.924e-05,6.23e-05,6.24e-05,5.88e-05,6.07e-05,6.38e-05,6.128e-05,6.204e-05,0.000117,9.744e-05,0.00010882,0.00010558,0.00010454,0.00010646,0.00010244,0.00011112,0.00010302,0.0001041
710,8.572e-05,9.142e-05,9.258e-05,8.476e-05,9.702e-05,8.458e-05,8.76e-05,7.62e-05,8.326e-05,8.182e-05,0.00010464,0.00010348,0.00010106,9.88e-05,9.952e-05,9.454e-05,0.00010014,0.00010576,9.65e-05,0.00010862,5.954e-05,5.69e-05,5.71e-05,6.008e-05,6.024e-05,5.496e-05,5.812e-05,6.18e-05,5.936e-05,6.032e-05,0.0001125,0.00010622,0.00010182,0.00010768,0.00011344,9.992e-05,0.00010078,0.00011792,9.554e-05,0.00010382
712,8.602e-05,9.024e-05,8.772e-05,8.234e-05,9.646e-05,8.238e-05,8.46e-05,7.502e-05,8.514e-05,8.296e-05,0.00010564,9.99e-05,0.00010008,9.742e-05,0.00010318,9.314e-05,9.92e-05,0.0001021,9.874e-05,0.0001054,5.678e-05,5.47e-05,5.578e-05,5.78e-05,5.66e-05,5.514e-05,5.682e-05,5.882e-05,5.716e-05,5.752e-05,0.00011194,9.854e-05,0.00010556,0.0001116,0.00011568,9.514e-05,9.892e-05,0.00011774,8.894e-05,0.00010086
714,8.288e-05,8.768e-05,8.5e-05,8.272e-05,9.328e-05,8.412e-05,7.936e-05,7.15e-05,7.998e-05,8.222e-05,0.00010406,0.00010032,9.58e-05,9.938e-05,0.00010068,8.984e-05,9.5e-05,0.00010428,9.298e-05,0.00010566,5.25e-05,5.426e-05,5.278e-05,5.77e-05,5.528e-05,5.336e-05,5.562e-05,5.75e-05,5.51e-05,5.582e-05,0.00010266,0.0001011,0.0001065,0.0001111,0.00010152,9.446e-05,9.756e-05,0.00011046,8.642e-05,9.844e-05
716,8.288e-05,8.316e-05,8.568e-05,7.872e-05,8.89e-05,7.97e-05,7.078e-05,6.502e-05,7.716e-05,7.244e-05,9.662e-05,0.00010054,9.146e-05,9.65e-05,9.65e-05,8.568e-05,9.014e-05,9.894e-05,9.124e-05,0.00010046,5.168e-05,5.138e-05,5.094e-05,5.272e-05,5.312e-05,5.016e-05,5.338e-05,5.532e-05,5.204e-05,5.354e-05,9.95e-05,9.106e-05,9.48e-05,0.0001095,0.00010476,9.066e-05,9.298e-05,0.00010292,8.56e-05,9.93e-05
718,7.626e-05,7.414e-05,7.798e-05,7.316e-05,8.68e-05,6.818e-05,6.586e-05,7.088e-05,7.616e-05,6.516e-05,9.196e-05,8.832e-05,9.02e-05,9.066e-05,9.25e-05,8.036e-05,8.082e-05,9.336e-05,8.692e-05,9.804e-05,5.126e-05,4.774e-05,4.666e-05,5.196e-05,5.25e-05,5.032e-05,5.154e-05,5.186e-05,4.866e-05,5.098e-05,9.304e-05,8.672e-05,9.176e-05,0.0001033,0.00010356,8.594e-05,8.902e-05,9.066e-05,8.328e-05,9.076e-05
720,7.2e-05,7.504e-05,7.088e-05,7.124e-05,7.53e-05,6.206e-05,6.69e-05,6.716e-05,7.02e-05,6.456e-05,8.928e-05,9.29e-05,8.176e-05,8.968e-05,8.962e-05,8.048e-05,7.59e-05,8.79e-05,8.244e-05,9.022e-05,4.868e-05,4.584e-05,4.474e-05,4.754e-05,4.892e-05,4.644e-05,4.692e-05,4.936e-05,4.378e-05,4.796e-05,8.674e-05,8.454e-05,8.034e-05,9.684e-05,8.642e-05,7.36e-05,8.566e-05,8.726e-05,7.59e-05,9.006e-05
722,6.384e-05,6.932e-05,6.708e-05,6.72e-05,7.122e-05,5.998e-05,6.556e-05,6.276e-05,6.51e-05,6.368e-05,8.174e-05,8.75e-05,7.984e-05,8.556e-05,8.608e-05,7.412e-05,7.388e-05,8.096e-05,7.828e-05,8.734e-05,4.47e-05,4.168e-05,4.102e-05,4.536e-05,4.514e-05,4.376e-05,4.626e-05,4.704e-05,4.494e-05,4.578e-05,8.032e-05,6.586e-05,8.048e-05,9.058e-05,8.324e-05,7.354e-05,8.286e-05,8.338e-05,7.234e-05,8.692e-05
724,5.632e-05,6.876e-05,6.762e-05,6.024e-05,6.852e-05,5.638e-05,5.482e-05,6.34e-05,6.286e-05,5.704e-05,8.264e-05,8.642e-05,8.128e-05,7.77e-05,8.532e-05,7.432e-05,7.574e-05,8.01e-05,7.814e-05,8.272e-05,4.214e-05,4.222e-05,3.98e-05,4.434e-05,4.462e-05,4.484e-05,4.48e-05,4.634e-05,4.196e-05,4.442e-05,7.97e-05,5.498e-05,7.612e-05,8.92e-05,7.656e-05,6.64e-05,8.072e-05,7.954e-05,6.886e-05,8.424e-05
726,4.882e-05,6.55e-05,6.74e-05,5.312e-05,6.512e-05,5.278e-05,5.464e-05,6.288e-05,5.474e-05,5.136e-05,7.654e-05,7.83e-05,8.306e-05,7.944e-05,8.05e-05,7.596e-05,6.842e-05,7.576e-05,7.98e-05,8.178e-05,4.466e-05,4.196e-05,3.822e-05,4.192e-05,4.558e-05,4.496e-05,4.24e-05,4.698e-05,4.086e-05,4.452e-05,7.222e-05,5.976e-05,7.418e-05,8.568e-05,8.572e-05,7.002e-05,8.008e-05,7.64e-05,5.764e-05,7.886e-05
728,5.64e-05,5.832e-05,6.002e-05,5.786e-05,5.794e-05,5.138e-05,5.068e-05,6.172e-05,5.986e-05,5.362e-05,7.568e-05,7.746e-05,7.464e-05,7.738e-05,8.346e-05,7.328e-05,6.492e-05,7.17e-05,7.714e-05,8.03e-05,4.308e-05,4.098e-05,3.858e-05,4.192e-05,4.628e-05,4.234e-05,4.45e-05,4.516e-05,4.112e-05,4.212e-05,6.46e-05,6.852e-05,8.154e-05,7.284e-05,7.236e-05,6.22e-05,8.008e-05,7.124e-05,7.386e-05,7.938e-05
730,5.368e-05,5.794e-05,5.704e-05,5.616e-05,5.792e-05,4.992e-05,5.018e-05,6.108e-05,5.398e-05,4.614e-05,7.696e-05,7.656e-05,7.876e-05,7.332e-05,8.33e-05,7.33e-05,6.662e-05,7.352e-05,7.93e-05,7.876e-05,4.242e-05,4.214e-05,4.012e-05,4.322e-05,4.4e-05,4.598e-05,4.416e-05,4.476e-05,4.156e-05,4.344e-05,6.72e-05,5.77e-05,7.806e-05,7.302e-05,6.85e-05,6.584e-05,7.996e-05,6.532e-05,7.228e-05,7.918e-05
732,4.582e-05,4.888e-05,5.478e-05,5.728e-05,5.226e-05,4.948e-05,5.182e-05,6.308e-05,5.37e-05,4.56e-05,7.458e-05,7.958e-05,7.538e-05,7.892e-05,7.898e-05,7.41e-05,7.038e-05,7.512e-05,8.026e-05,8.242e-05,4.222e-05,4.038e-05,3.986e-05,3.972e-05,4.254e-05,4.46e-05,4.47e-05,4.466e-05,4.09e-05,4.262e-05,6.598e-05,5.362e-05,7.2e-05,7.624e-05,6.108e-05,7.056e-05,7.938e-05,7.34e-05,6.59e-05,8.356e-05
734,4.642e-05,4.802e-05,4.314e-05,5.79e-05,5.636e-05,4.932e-05,5.118e-05,5.494e-05,4.558e-05,4.336e-05,6.76e-05,7.69e-05,6.974e-05,7.324e-05,7.316e-05,7.08e-05,7.288e-05,7.122e-05,7.998e-05,7.492e-05,3.93e-05,3.944e-05,3.768e-05,3.676e-05,4.474e-05,4.346e-05,4.248e-05,4.28e-05,4.03e-05,4.102e-05,6.066e-05,4.406e-05,7.13e-05,7.016e-05,6.286e-05,6.48e-05,7.86e-05,6.454e-05,6.976e-05,8.208e-05
736,3.916e-05,3.824e-05,4.34e-05,5.172e-05,4.51e-05,4.406e-05,3.992e-05,6.08e-05,3.972e-05,3.988e-05,5.984e-05,6.6e-05,6.768e-05,6.536e-05,7.028e-05,6.896e-05,5.738e-05,6.278e-05,7.544e-05,7.064e-05,3.59e-05,3.724e-05,3.306e-05,3.446e-05,4.012e-05,3.904e-05,4.194e-05,3.822e-05,3.62e-05,3.622e-05,6.332e-05,4.402e-05,6.336e-05,6.308e-05,5.004e-05,5.61e-05,7.032e-05,4.204e-05,6.166e-05,7.164e-05
738,2.526e-05,2.712e-05,3.656e-05,4.35e-05,3.92e-05,3.634e-05,3.416e-05,4.524e-05,3.28e-05,3.226e-05,6.088e-05,6.056e-05,5.95e-05,5.986e-05,5.908e-05,6.516e-05,6.32e-05,6.746e-05,7.812e-05,6.616e-05,3.25e-05,3.356e-05,3.052e-05,2.912e-05,3.364e-05,3.532e-05,3.602e-05,3.164e-05,3.254e-05,3.254e-05,5.078e-05,4.168e-05,5.156e-05,5.104e-05,5.29e-05,4.54e-05,6.448e-05,4.27e-05,6.63e-05,6.322e-05
740,2.428e-05,2.272e-05,3.336e-05,3.89e-05,2.85e-05,3.636e-05,3.092e-05,4.592e-05,3.13e-05,3.094e-05,5.402e-05,5.278e-05,5.306e-05,5.354e-05,5.622e-05,6.248e-05,5.564e-05,5.692e-05,7.736e-05,5.668e-05,2.908e-05,3.082e-05,2.798e-05,2.532e-05,3.27e-05,3.126e-05,3.318e-05,2.902e-05,2.794e-05,2.89e-05,4.856e-05,3.232e-05,4.474e-05,4.032e-05,4.86e-05,3.92e-05,6.058e-05,3.432e-05,6.016e-05,6.608e-05
742,2.512e-05,1.669e-05,2.67e-05,2.91e-05,2.308e-05,2.874e-05,2.184e-05,4.522e-05,2.904e-05,3.078e-05,4.71e-05,4.74e-05,5.432e-05,5.032e-05,5.02e-05,5.68e-05,5.088e-05,5.546e-05,7.03e-05,5.118e-05,2.726e-05,2.766e-05,2.782e-05,2.358e-05,2.934e-05,3.076e-05,3.222e-05,2.828e-05,2.638e-05,2.552e-05,3.196e-05,2.334e-05,3.658e-05,3.854e-05,2.464e-05,3.284e-05,5.744e-05,3.346e-05,5.384e-05,6.482e-05
744,1.75e-05,1.3506e-05,2.374e-05,3.482e-05,2.142e-05,3.226e-05,2.612e-05,4.066e-05,3.306e-05,2.664e-05,4.102e-05,4.37e-05,4.426e-05,4.542e-05,4.216e-05,5.516e-05,4.83e-05,4.494e-05,7.264e-05,5.294e-05,2.35e-05,2.366e-05,1.8948e-05,2.028e-05,2.608e-05,2.698e-05,2.936e-05,2.368e-05,2.694e-05,2.28e-05,3.086e-05,1.1864e-05,3.936e-05,2.548e-05,1.5646e-05,3.486e-05,5.29e-05,1.8168e-05,5.174e-05,5.278e-05
746,2.256e-05,9.366e-06,2.04e-05,3.2e-05,1.5712e-05,2.19e-05,2.058e-05,3.958e-05,2.32e-05,2.144e-05,3.942e-05,4.99e-05,4.494e-05,4.37e-05,3.912e-05,5.432e-05,4.45e-05,4.292e-05,6.932e-05,5.204e-05,1.9768e-05,1.9578e-05,1.7906e-05,1.7638e-05,2.39e-05,2.606e-05,2.43e-05,2.014e-05,2.294e-05,2.114e-05,2.252e-05,1.6324e-06,3.312e-05,1.2786e-05,1.8344e-05,2.42e-05,4.882e-05,3.276e-05,5.426e-05,4.924e-05
748,1.8686e-05,7.716e-06,1.9436e-05,2.88e-05,4.638e-06,2.494e-05,1.7146e-05,3.586e-05,1.7166e-05,2.654e-05,3.746e-05,3.902e-05,4.488e-05,4.548e-05,3.628e-05,5.044e-05,4.112e-05,4.02e-05,6.694e-05,4.728e-05,1.9748e-05,1.9554e-05,1.6474e-05,1.7712e-05,1.9986e-05,2.358e-05,2.824e-05,2.028e-05,2.076e-05,2.156e-05,1.3512e-05,1.0904e-05,2.262e-05,1.5398e-05,1.4198e-05,2.576e-05,4.802e-05,3.508e-05,5.574e-05,5.36e-05
750,2.24e-05,4.882e-07,1.1694e-05,3.214e-05,5.03e-06,2.03e-05,1.4452e-05,3.508e-05,2.176e-05,2.518e-05,3.982e-05,3.508e-05,4.916e-05,4.2e-05,3.84e-05,4.548e-05,4.378e-05,2.836e-05,6.172e-05,4.392e-05,1.722e-05,1.8282e-05,1.6006e-05,1.458e-05,1.4318e-05,2.266e-05,2.914e-05,1.9704e-05,1.9174e-05,2.124e-05,1.9126e-05,1.6928e-05,2.516e-05,1.2888e-05,1.8704e-05,1.7098e-05,4.88e-05,2.196e-05,5.286e-05,4.778e-05
752,2.954e-05,1.4572e-07,1.4218e-05,3.12e-05,1.0738e-05,3.32e-05,1.1412e-05,3.926e-05,1.2504e-05,2.56e-05,3.228e-05,3.698e-05,3.914e-05,4.098e-05,3.846e-05,4.966e-05,4.29e-05,5.028e-05,6.106e-05,4.392e-05,1.7954e-05,2.372e-05,1.9218e-05,1.6512e-05,1.6014e-05,2.816e-05,2.59e-05,1.79e-05,2.104e-05,1.8464e-05,3.18e-05,2.982e-05,2.728e-05,1.4904e-05,1.039e-05,2.07e-05,4.894e-05,1.1876e-05,5.93e-05,4.804e-05
754,2.464e-05,1.2784e-06,2.564e-05,3.174e-05,6.32e-06,3.266e-05,2.03e-05,3.394e-05,2.18e-05,1.8176e-05,3.578e-05,4.056e-05,3.982e-05,4.132e-05,3.382e-05,5.556e-05,4.038e-05,3.852e-05,5.778e-05,4.318e-05,1.6588e-05,1.8458e-05,1.5872e-05,1.7928e-05,1.4924e-05,2.396e-05,2.59e-05,1.8066e-05,2.362e-05,1.8228e-05,2.642e-05,2.074e-05,4.384e-05,1.7618e-05,3.33e-05,2.89e-05,4.904e-05,6.15e-06,5.638e-05,5.034e-05
756,2.392e-05,2.638e-06,2.586e-05,3.046e-05,1.5426e-05,3.552e-05,1.6786e-05,3.552e-05,1.8832e-05,1.7362e-05,4.018e-05,3.652e-05,3.672e-05,4.78e-05,3.078e-05,6.078e-05,4.186e-05,3.914e-05,5.864e-05,4.826e-05,1.7752e-05,2.204e-05,1.5244e-05,1.5686e-05,1.5178e-05,2.254e-05,2.498e-05,1.7304e-05,2.55e-05,2.076e-05,2.324e-05,3.002e-05,3.294e-05,1.4042e-05,3.392e-05,3.526e-05,5.336e-05,4.902e-06,5.882e-05,4.68e-05
758,2.13e-05,8.404e-06,2.776e-05,3.876e-05,2.454e-05,3.618e-05,2.586e-05,2.712e-05,1.7448e-05,1.4238e-05,4.278e-05,3.938e-05,3.82e-05,3.92e-05,2.852e-05,6.13e-05,4.892e-05,4.08e-05,5.908e-05,4.94e-05,1.7856e-05,1.8058e-05,1.554e-05,1.639e-05,9.654e-06,2.606e-05,2.662e-05,1.5338e-05,2.668e-05,2.354e-05,2.566e-05,3.476e-05,4.398e-05,1.7648e-05,3.918e-05,4.34e-05,5.402e-05,1.9064e-05,7.588e-05,5.692e-05
760,2.19e-05,9.68e-06,2.586e-05,5.188e-05,2.792e-05,2.974e-05,3.156e-05,2.464e-05,2.532e-05,1.5402e-05,5.23e-05,3.6e-05,4.752e-05,3.99e-05,3.122e-05,5.302e-05,4.398e-05,3.014e-05,5.95e-05,4.488e-05,1.7946e-05,1.922e-05,1.6816e-05,1.501e-05,1.545e-05,2.162e-05,3.088e-05,1.5664e-05,2.86e-05,2.266e-05,5.11e-05,2.954e-05,4.106e-05,1.6002e-05,1.6362e-05,5.942e-05,5.662e-05,2.592e-05,7.728e-05,4.968e-05
762,2.73e-05,1.5968e-06,3.952e-05,5.496e-05,2.404e-05,2.732e-05,4.434e-05,2.024e-05,2.678e-05,1.9764e-05,4.216e-05,3.996e-05,3.116e-05,4.3e-05,2.998e-05,5.326e-05,4.846e-05,3.87e-05,5.562e-05,3.546e-05,1.4134e-05,2.624e-05,1.7918e-05,1.7222e-05,1.0448e-05,2.454e-05,2.522e-05,1.481e-05,2.8e-05,2.14e-05,3.91e-05,5.214e-05,4.914e-05,1.1922e-05,6.046e-05,5.492e-05,5.604e-05,3.7e-05,6.562e-05,5.056e-05
764,3.156e-05,7.038e-06,3.134e-05,3.312e-05,2.618e-05,3.628e-05,4.61e-05,1.252e-05,3.302e-05,2.27e-05,4.81e-05,2.996e-05,2.392e-05,3.998e-05,4.14e-05,5.366e-05,4.492e-05,4.09e-05,4.608e-05,4.924e-05,1.9128e-05,2.388e-05,1.7554e-05,1.7806e-05,1.1802e-05,2.426e-05,2.54e-05,1.8102e-05,2.768e-05,2.534e-05,4.426e-05,5.508e-05,5.398e-05,1.4568e-05,4.978e-05,6.724e-05,6.354e-05,2.888e-05,7.418e-05,4.51e-05
766,2.9e-05,1.1886e-05,2.68e-05,3.232e-05,2.914e-05,3.74e-05,5.412e-05,2.8e-05,3.572e-05,1.923e-05,4.836e-05,4.492e-05,3.122e-05,3.05e-05,3.366e-05,5.112e-05,3.738e-05,3.714e-05,4.984e-05,5.128e-05,1.6698e-05,2.426e-05,1.953e-05,1.8102e-05,8.718e-06,2.536e-05,2.712e-05,1.4064e-05,3.05e-05,2.874e-05,3.964e-05,6.274e-05,7.752e-05,2.328e-05,7.36e-05,5.92e-05,6.816e-05,3.252e-05,6.484e-05,5.934e-05
768,4.228e-05,1.966e-05,1.7086e-05,4.19e-05,3.718e-05,3e-05,4.392e-05,1.7426e-05,4.934e-05,6.194e-06,5.636e-05,4.698e-05,3.038e-05,4.02e-05,3.844e-05,5.53e-05,5.598e-05,4.174e-05,4.386e-05,3.328e-05,2.062e-05,2.22e-05,1.7536e-05,2.306e-05,8.226e-06,2.848e-05,2.44e-05,1.8256e-05,2.908e-05,2.366e-05,4.34e-05,8.906e-05,7.586e-05,3.086e-05,7.706e-05,7.42e-05,6.402e-05,3.168e-05,6.102e-05,6.218e-05
770,5.396e-05,7.794e-06,3.88e-05,4.538e-05,3.682e-05,4.294e-05,5.102e-05,1.5426e-05,3.362e-05,5.968e-06,5.558e-05,5.354e-05,3.17e-05,4.158e-05,2.964e-05,5.272e-05,6.22e-05,5.568e-05,3.082e-05,3.63e-05,2.262e-05,2.612e-05,1.606e-05,2.242e-05,1.2982e-05,2.426e-05,2.75e-05,1.8544e-05,3.462e-05,2.278e-05,6.124e-05,9.242e-05,6.524e-05,6.164e-05,8.124e-05,9.648e-05,6.582e-05,5.668e-05,5.872e-05,6.396e-05
772,4.986e-05,1.643e-05,3.97e-05,5.068e-05,3.97e-05,3.386e-05,6.234e-05,2.456e-05,3.66e-05,1.413e-05,4.612e-05,6.108e-05,3.008e-05,3.688e-05,3.908e-05,4.872e-05,5.288e-05,4.532e-05,4.452e-05,3.086e-05,2.308e-05,2.36e-05,1.802e-05,2.104e-05,1.2326e-05,2.56e-05,2.228e-05,2.104e-05,2.752e-05,2.74e-05,6.432e-05,0.00010638,8.944e-05,5.278e-05,0.00010806,8.296e-05,6.676e-05,3.986e-05,6.216e-05,7.788e-05
774,4.592e-05,3.952e-05,2.508e-05,5.526e-05,4.674e-05,3.846e-05,5.198e-05,1.139e-05,3.592e-05,2.902e-05,5.832e-05,6.004e-05,1.836e-05,4.048e-05,4.752e-05,4.594e-05,5.574e-05,6.886e-05,2.398e-05,5.004e-05,2.31e-05,2.624e-05,2.112e-05,2.054e-05,1.774e-05,2.838e-05,2.088e-05,2.112e-05,3.07e-05,2.518e-05,6.988e-05,0.00011156,9.252e-05,6.092e-05,0.00010422,8.876e-05,7.238e-05,6.976e-05,5.264e-05,8.732e-05
776,4.63e-05,1.8558e-05,2.238e-05,4.082e-05,7.232e-05,2.856e-05,4.21e-05,5.528e-06,4.98e-05,1.7162e-05,5.698e-05,6.062e-05,2.292e-05,3.38e-05,5.396e-05,4.484e-05,5.33e-05,5.606e-05,3.042e-05,3.956e-05,2.606e-05,2.098e-05,2.268e-05,1.8362e-05,1.3804e-05,2.76e-05,2.642e-05,2.032e-05,3.108e-05,2.52e-05,6.588e-05,0.00013746,0.0001002,8.152e-05,9.712e-05,8.448e-05,7.58e-05,6.722e-05,4.78e-05,9.536e-05
778,6.568e-05,1.9274e-05,5.282e-05,5.068e-05,5.248e-05,3.07e-05,7.21e-05,1.5716e-05,5.212e-05,1.7138e-05,5.996e-05,5.784e-05,3.462e-05,4.616e-05,5.038e-05,5.014e-05,3.602e-05,4.142e-05,1.323e-05,1.6896e-05,2.764e-05,2.252e-05,2.486e-05,1.7654e-05,1.3472e-05,2.74e-05,2.718e-05,2.544e-05,3.496e-05,2.474e-05,7.35e-05,0.000147,0.00010792,8.148e-05,0.00011544,8.688e-05,7.948e-05,6.184e-05,4.966e-05,7.494e-05
780,7.886e-05,2.604e-05,5.816e-05,4.514e-05,7.118e-05,3.14e-05,8.134e-05,3.658e-05,4.764e-05,2.962e-05,5.486e-05,5.824e-05,3.194e-05,4.628e-05,4.276e-05,5.052e-05,4.234e-05,4.346e-05,1.6038e-05,4.39e-05,3.228e-05,1.6194e-05,2.908e-05,2.066e-05,1.6716e-05,3.024e-05,2.996e-05,2.38e-05,3.766e-05,2.496e-05,7.702e-05,0.00015626,0.00010404,9.958e-05,0.00011648,0.0001099,8.532e-05,9.55e-05,3.53e-05,8.646e-05
