Wavelength [nm],Background (Mel),Modulation (Mel),Background (LMS),Modulation (LMS)380,2.096e-05,1.0602e-05,1.0926e-05,1.9416e-05,1.5676e-05,9.058e-06,1.1042e-05,5.846e-06,5.332e-06,1.1818e-05,7.096e-06,1.2556e-05,1.102e-05,1.221e-05,2.352e-05,1.1158e-05,1.3544e-05,7.932e-06,1.2526e-05,1.824e-05,5.038e-06,3.04e-06,2.008e-06,4.958e-06,4.136e-06,5.882e-06,8.732e-06,5.806e-06,4.442e-06,5.528e-06,2.208e-05,1.6036e-05,2.112e-05,3.802e-05,2.554e-05,2.168e-05,3.142e-05,3.122e-05,2.734e-05,2.72e-05
382,1.4158e-05,7.03e-06,8.864e-06,1.557e-05,1.5408e-05,9.912e-06,1.4472e-05,4.288e-06,7.892e-06,9.75e-06,4.398e-06,1.046e-05,1.1924e-05,1.1934e-05,2.18e-05,9.636e-06,1.5052e-05,1.2602e-05,7.564e-06,1.1608e-05,5.838e-06,2.31e-06,4.452e-06,4.638e-06,4.864e-06,5.98e-06,8.964e-06,3.648e-06,5.758e-06,6.086e-06,2.32e-05,1.7956e-05,1.3248e-05,3.614e-05,2.674e-05,2.266e-05,3.122e-05,2.472e-05,3.01e-05,3.726e-05
384,1.2694e-05,1.1438e-05,8.512e-06,1.8194e-05,1.516e-05,4.858e-06,1.365e-05,2.26e-06,7.37e-06,9.002e-06,7.852e-06,8.68e-06,1.0762e-05,1.27e-05,1.9188e-05,1.1492e-05,1.5118e-05,8.044e-06,1.0066e-05,1.4666e-05,5.432e-06,2.706e-06,3.942e-06,4.75e-06,4.41e-06,6.642e-06,8.628e-06,4.468e-06,6.732e-06,5.484e-06,2.36e-05,1.297e-05,8.578e-06,3.554e-05,1.9608e-05,2.078e-05,2.494e-05,2.18e-05,2.636e-05,3.042e-05
386,1.2274e-05,1.0724e-05,7.432e-06,1.776e-05,1.1546e-05,6.508e-06,1.0646e-05,5.67e-06,9.17e-06,9.52e-06,6.528e-06,1.1476e-05,1.3004e-05,1.3106e-05,2.054e-05,9.5e-06,1.2048e-05,1.008e-05,1.189e-05,1.2642e-05,6.246e-06,3.456e-06,4.522e-06,4.518e-06,5.446e-06,5.422e-06,8.716e-06,3.876e-06,6.266e-06,5.536e-06,2.362e-05,1.5776e-05,1.0724e-05,3.756e-05,2.98e-05,2.036e-05,2.332e-05,1.6872e-05,2.184e-05,2.936e-05
388,1.2042e-05,1.099e-05,2.476e-06,1.6666e-05,1.3798e-05,1.1138e-05,1.4174e-05,3.708e-06,9.81e-06,6.724e-06,8.278e-06,9.936e-06,1.38e-05,1.2716e-05,2.4e-05,1.173e-05,1.4162e-05,9.904e-06,8.542e-06,1.3858e-05,6.002e-06,3.424e-06,4.516e-06,5.474e-06,5.796e-06,5.228e-06,8.912e-06,3.47e-06,6.178e-06,5.838e-06,2.558e-05,1.9292e-05,1.0368e-05,3.822e-05,2.376e-05,2.162e-05,2.336e-05,1.8202e-05,2.332e-05,3.15e-05
390,1.06e-05,1.0888e-05,4.92e-06,1.3624e-05,1.0958e-05,1.1982e-05,1.3238e-05,5.474e-06,7.602e-06,5.288e-06,7.038e-06,7.56e-06,1.3016e-05,1.3406e-05,2.09e-05,1.2692e-05,1.7916e-05,1.0124e-05,7.334e-06,1.3844e-05,4.252e-06,3.286e-06,4.276e-06,4.888e-06,5.916e-06,6.006e-06,8.77e-06,3.368e-06,5.88e-06,6.43e-06,1.9542e-05,2.066e-05,1.173e-05,3.698e-05,2.328e-05,2.35e-05,2.51e-05,2.014e-05,1.9164e-05,3.378e-05
392,1.2808e-05,9.402e-06,5e-06,1.4306e-05,1.2236e-05,1.1068e-05,1.176e-05,9.886e-06,9.814e-06,2.366e-06,6.2e-06,6.056e-06,1.164e-05,1.1628e-05,1.9746e-05,9.182e-06,1.845e-05,1.026e-05,1.2044e-05,1.2178e-05,5.23e-06,3.872e-06,4.326e-06,4.562e-06,6.354e-06,6e-06,8.84e-06,3.866e-06,5.252e-06,5.976e-06,1.3242e-05,1.9168e-05,7.116e-06,3.348e-05,2.382e-05,1.9624e-05,2.556e-05,1.7548e-05,2.094e-05,2.97e-05
394,6.622e-06,8.064e-06,3.956e-06,1.194e-05,1.3232e-05,1.1144e-05,9.898e-06,5.458e-06,1.1156e-05,3.348e-06,3.184e-06,7.916e-06,1.3936e-05,1.3776e-05,1.8838e-05,1.2136e-05,2.092e-05,8.342e-06,8.99e-06,1.1878e-05,4.606e-06,3.502e-06,4.89e-06,5.12e-06,5.42e-06,5.74e-06,8.568e-06,5.406e-06,5.574e-06,4.988e-06,1.7336e-05,1.9164e-05,9.974e-06,3.196e-05,2.176e-05,1.577e-05,2.358e-05,1.6214e-05,2.38e-05,2.444e-05
396,5.634e-06,9.432e-06,5.014e-06,1.292e-05,1.0192e-05,9.25e-06,9.306e-06,5.282e-06,9.876e-06,3.33e-06,6.622e-06,7.662e-06,1.2224e-05,1.084e-05,1.5988e-05,1.133e-05,1.6544e-05,9.808e-06,8.128e-06,1.0548e-05,5.7e-06,3.542e-06,3.782e-06,3.282e-06,5.078e-06,4.604e-06,7.82e-06,3.29e-06,4.6e-06,5.244e-06,1.1274e-05,2.26e-05,6.866e-06,2.712e-05,2.482e-05,1.8578e-05,2.782e-05,1.5134e-05,2.234e-05,3.67e-05
398,4.138e-06,7.65e-06,4.21e-06,1.4242e-05,6.08e-06,8.764e-06,1.0328e-05,1.1366e-05,8.94e-06,6.642e-06,4.592e-06,9.09e-06,1.2948e-05,1.2326e-05,1.9936e-05,1.2514e-05,1.3184e-05,1.2152e-05,7.098e-06,1.459e-05,5.06e-06,4.078e-06,3.758e-06,3.91e-06,4.97e-06,4.218e-06,6.244e-06,3.548e-06,7.32e-06,4.92e-06,1.4636e-05,2.224e-05,7.612e-06,2.476e-05,2.724e-05,1.7388e-05,2.364e-05,1.6156e-05,1.522e-05,3.282e-05
400,5.614e-06,8.69e-06,4.068e-06,1.04e-05,5.528e-06,1.0946e-05,9.664e-06,8.414e-06,7.712e-06,4.36e-06,6.634e-06,8.362e-06,1.2608e-05,1.2218e-05,1.7514e-05,1.1798e-05,1.6196e-05,9.972e-06,8.278e-06,1.153e-05,5.816e-06,3.446e-06,3.514e-06,3.614e-06,4.18e-06,3.196e-06,6.766e-06,4.77e-06,5.888e-06,5.224e-06,1.413e-05,2.33e-05,6.502e-06,2.194e-05,2.318e-05,1.7982e-05,1.6942e-05,1.2922e-05,1.67e-05,3.158e-05
402,4.812e-06,9.64e-06,6.508e-06,9.416e-06,5.956e-06,1.1578e-05,1.0718e-05,8.502e-06,1.159e-05,3.806e-06,8.578e-06,8.404e-06,1.287e-05,1.1272e-05,1.5458e-05,1.1142e-05,1.688e-05,1.0658e-05,5.88e-06,9.148e-06,5.582e-06,4.538e-06,3.34e-06,3.616e-06,3.58e-06,3.176e-06,6.58e-06,4.144e-06,6.002e-06,4.376e-06,1.6416e-05,2.398e-05,8.468e-06,2.14e-05,2.12e-05,2.058e-05,1.8482e-05,1.137e-05,1.8442e-05,2.952e-05
404,6.112e-06,8.82e-06,8.542e-06,7.986e-06,8.924e-06,1.2386e-05,1.0614e-05,9.954e-06,1.1312e-05,2.59e-06,7.314e-06,7.29e-06,1.186e-05,1.2052e-05,1.3804e-05,1.0642e-05,1.5244e-05,1.0246e-05,7.316e-06,1.0644e-05,4.838e-06,4.52e-06,3.264e-06,2.998e-06,4.476e-06,3.924e-06,6.098e-06,4.244e-06,5.744e-06,4.814e-06,1.3248e-05,2.458e-05,8.404e-06,1.8896e-05,2.478e-05,2.06e-05,1.9906e-05,1.3992e-05,1.3394e-05,2.884e-05
406,6.25e-06,8.138e-06,8.154e-06,8.086e-06,9.164e-06,1.2182e-05,1.5084e-05,1.1484e-05,1.0802e-05,2.472e-06,7.692e-06,8.698e-06,1.2678e-05,1.0808e-05,1.3704e-05,1.2104e-05,1.7422e-05,1.0068e-05,7.886e-06,1.1734e-05,5.062e-06,4.262e-06,3.726e-06,2.16e-06,4.21e-06,4.306e-06,5.25e-06,4.406e-06,5.014e-06,4.308e-06,1.1654e-05,2.37e-05,6.784e-06,1.496e-05,2.394e-05,1.9758e-05,1.8456e-05,1.4902e-05,1.1616e-05,2.734e-05
408,5.97e-06,8.906e-06,1.0244e-05,1.0942e-05,5.346e-06,1.0182e-05,1.2752e-05,1.0764e-05,1.212e-05,3.254e-06,6.45e-06,9.62e-06,9.432e-06,1.091e-05,1.0714e-05,1.1976e-05,1.461e-05,1.1906e-05,5.38e-06,1.034e-05,5e-06,5.104e-06,3.784e-06,2.12e-06,4.198e-06,3.408e-06,6.12e-06,5.02e-06,5.602e-06,4.346e-06,1.2082e-05,2.528e-05,7.926e-06,1.6942e-05,2.17e-05,2.188e-05,1.9246e-05,1.5402e-05,1.409e-05,3.15e-05
410,5.012e-06,1.0902e-05,7.338e-06,8.712e-06,9.018e-06,1.0904e-05,1.0774e-05,1.4546e-05,1.5718e-05,1.2028e-05,7.348e-06,5.194e-06,1.226e-05,1.132e-05,1.1152e-05,1.3938e-05,1.3218e-05,1.281e-05,1.0452e-05,1.0502e-05,6.378e-06,4.29e-06,3.556e-06,2.328e-06,4.418e-06,4.042e-06,6.42e-06,5.856e-06,4.776e-06,5.994e-06,9.082e-06,2.162e-05,9.688e-06,1.7892e-05,2.852e-05,2.36e-05,2.268e-05,1.7084e-05,1.7868e-05,2.994e-05
412,7.642e-06,9.1e-06,1.2006e-05,5.762e-06,1.0194e-05,1.3868e-05,1.3488e-05,1.2924e-05,1.5026e-05,9.54e-06,1.0436e-05,9.318e-06,1.0716e-05,1.1086e-05,9.48e-06,1.372e-05,1.3522e-05,1.3324e-05,8.216e-06,1.0552e-05,5.276e-06,3.088e-06,4.24e-06,2.422e-06,2.97e-06,4.24e-06,6.522e-06,4.562e-06,5.148e-06,4.568e-06,1.6424e-05,2.868e-05,1.6584e-05,1.8612e-05,2.656e-05,2.724e-05,2.69e-05,2.318e-05,2.038e-05,3.202e-05
414,1.195e-05,1.3334e-05,1.3896e-05,1.258e-05,1.1662e-05,2.04e-05,2.052e-05,1.8872e-05,1.9054e-05,1.3206e-05,1.0482e-05,9.596e-06,1.251e-05,1.247e-05,1.0456e-05,1.4216e-05,1.4966e-05,1.3688e-05,9.566e-06,1.1482e-05,5.274e-06,5.376e-06,4.37e-06,1.7506e-06,2.866e-06,5.094e-06,5.936e-06,4.506e-06,5.272e-06,5.704e-06,2.376e-05,3.47e-05,2.456e-05,2.376e-05,2.868e-05,3.408e-05,3.176e-05,2.962e-05,2.698e-05,3.644e-05
416,2.702e-05,2.864e-05,2.65e-05,2.596e-05,2.66e-05,2.954e-05,3.108e-05,3.096e-05,2.944e-05,2.834e-05,1.3688e-05,1.3804e-05,1.6342e-05,1.4476e-05,1.5456e-05,1.782e-05,1.7538e-05,1.7452e-05,1.4098e-05,1.5776e-05,5.01e-06,6.034e-06,4.472e-06,3.394e-06,3.736e-06,6.016e-06,6.042e-06,5.986e-06,5.506e-06,6.098e-06,4.054e-05,5.116e-05,4.092e-05,4.424e-05,4.662e-05,4.998e-05,5.136e-05,4.612e-05,4.296e-05,5.04e-05
418,6.222e-05,6.126e-05,6.378e-05,6.1e-05,6.158e-05,5.73e-05,5.912e-05,5.848e-05,5.902e-05,5.724e-05,2.394e-05,2.476e-05,2.628e-05,2.484e-05,2.472e-05,2.628e-05,2.52e-05,2.426e-05,2.196e-05,2.308e-05,7.412e-06,7.764e-06,6.476e-06,5.516e-06,6.064e-06,7.41e-06,7.854e-06,7.566e-06,7.672e-06,7.178e-06,8.978e-05,9.72e-05,8.96e-05,9.24e-05,9.242e-05,9.118e-05,9.158e-05,8.75e-05,8.446e-05,8.796e-05
420,0.00012636,0.000126,0.00012664,0.0001264,0.00012402,0.00011046,0.00010918,0.00011048,0.00011052,0.000108,4.282e-05,4.364e-05,4.42e-05,4.322e-05,4.304e-05,3.962e-05,3.746e-05,4.038e-05,3.75e-05,3.62e-05,1.1084e-05,1.0736e-05,1.07e-05,8.97e-06,9.7e-06,9.864e-06,1.0612e-05,9.73e-06,1.0346e-05,9.804e-06,0.00017346,0.00017984,0.00017364,0.00017392,0.00017788,0.00016114,0.00016106,0.00015962,0.00015588,0.00015788
422,0.0002096,0.000209,0.0002082,0.0002076,0.0002066,0.00017818,0.0001785,0.0001785,0.000178,0.00017826,6.7e-05,6.914e-05,6.67e-05,6.766e-05,6.488e-05,5.898e-05,5.722e-05,6.088e-05,5.836e-05,5.716e-05,1.5286e-05,1.5384e-05,1.4062e-05,1.3364e-05,1.353e-05,1.3932e-05,1.427e-05,1.3952e-05,1.3976e-05,1.3672e-05,0.000293,0.0002984,0.0002946,0.0002944,0.0002994,0.000261,0.00026,0.0002598,0.000256,0.0002614
424,0.000294,0.0002952,0.0002918,0.000291,0.0002914,0.000251,0.0002516,0.0002526,0.0002522,0.0002542,9.208e-05,9.306e-05,9.338e-05,9.228e-05,8.898e-05,7.926e-05,7.844e-05,8.184e-05,7.854e-05,7.784e-05,2.124e-05,2.052e-05,2.014e-05,1.9108e-05,1.9982e-05,1.9688e-05,1.8948e-05,1.909e-05,1.8154e-05,1.8246e-05,0.0004518,0.000457,0.0004534,0.0004524,0.0004544,0.0003914,0.0003864,0.0003906,0.0003866,0.0003894
426,0.0003764,0.0003746,0.000374,0.0003718,0.0003736,0.0003226,0.0003218,0.000324,0.0003252,0.000321,0.00011662,0.00011544,0.00011528,0.00011506,0.00011246,9.994e-05,0.00010006,0.00010144,9.892e-05,9.91e-05,2.806e-05,2.838e-05,2.824e-05,2.656e-05,2.75e-05,2.602e-05,2.55e-05,2.608e-05,2.598e-05,2.482e-05,0.0006544,0.0006594,0.0006578,0.000658,0.000656,0.000565,0.0005626,0.0005644,0.0005618,0.0005618
428,0.0004466,0.0004404,0.0004444,0.000442,0.0004424,0.0003858,0.0003862,0.0003858,0.0003838,0.0003842,0.00013464,0.0001376,0.00013444,0.00013486,0.0001329,0.00011858,0.00011786,0.00012004,0.00011632,0.00011852,3.796e-05,3.71e-05,3.74e-05,3.614e-05,3.656e-05,3.462e-05,3.428e-05,3.356e-05,3.324e-05,3.33e-05,0.0008898,0.0008938,0.0008946,0.0008874,0.0008912,0.0007658,0.0007616,0.0007648,0.000759,0.0007542
430,0.000502,0.0004966,0.0004974,0.0004972,0.0004974,0.0004326,0.000433,0.0004346,0.0004326,0.0004328,0.00015238,0.00015332,0.00015294,0.00015176,0.00014974,0.00013456,0.00013316,0.00013522,0.00013174,0.00013052,4.572e-05,4.598e-05,4.534e-05,4.466e-05,4.488e-05,4.202e-05,4.128e-05,4.146e-05,4.074e-05,3.976e-05,0.0011032,0.0011054,0.0011088,0.0011048,0.0011048,0.0009486,0.0009464,0.0009466,0.0009436,0.0009362
432,0.000532,0.0005272,0.0005292,0.0005292,0.0005272,0.0004628,0.000461,0.0004638,0.0004604,0.0004612,0.00016262,0.00016362,0.00016108,0.00016246,0.00015976,0.00014288,0.00014172,0.00014408,0.00014162,0.0001402,5.282e-05,5.282e-05,5.192e-05,5.16e-05,5.208e-05,4.756e-05,4.76e-05,4.77e-05,4.686e-05,4.66e-05,0.001255,0.0012574,0.0012618,0.001259,0.0012596,0.0010848,0.0010824,0.001083,0.0010794,0.0010742
434,0.000518,0.0005134,0.0005152,0.0005144,0.000515,0.0004568,0.0004584,0.0004572,0.000457,0.0004582,0.00016086,0.0001616,0.00015798,0.0001594,0.0001573,0.00014368,0.00014212,0.00014422,0.00014126,0.00014092,5.746e-05,5.704e-05,5.656e-05,5.646e-05,5.664e-05,5.208e-05,5.192e-05,5.15e-05,5.114e-05,5.068e-05,0.0013192,0.0013226,0.0013262,0.0013236,0.0013194,0.0011504,0.001147,0.001149,0.0011454,0.001138
436,0.0004426,0.0004384,0.0004398,0.0004408,0.0004392,0.0004026,0.0004046,0.0004036,0.0004038,0.0004042,0.00014124,0.00014192,0.0001389,0.0001395,0.00013838,0.0001303,0.00012926,0.00013042,0.00012752,0.00012776,5.764e-05,5.816e-05,5.776e-05,5.786e-05,5.776e-05,5.438e-05,5.362e-05,5.354e-05,5.276e-05,5.24e-05,0.0012872,0.001288,0.0012932,0.0012922,0.0012888,0.0011394,0.0011352,0.0011366,0.001135,0.0011246
438,0.0003222,0.000316,0.0003186,0.0003196,0.0003168,0.0003052,0.0003046,0.0003054,0.0003052,0.000306,0.00010804,0.0001105,0.0001075,0.00010808,0.00010592,0.0001044,0.00010422,0.00010616,0.00010372,0.0001029,5.64e-05,5.568e-05,5.584e-05,5.614e-05,5.556e-05,5.362e-05,5.294e-05,5.29e-05,5.18e-05,5.204e-05,0.0011742,0.001174,0.0011804,0.0011774,0.0011762,0.0010618,0.0010554,0.0010586,0.0010532,0.0010448
440,0.00019126,0.00018616,0.00018886,0.00018862,0.00018818,0.00019324,0.00019424,0.00019296,0.00019324,0.000197,7.468e-05,7.596e-05,7.48e-05,7.448e-05,7.27e-05,7.704e-05,7.716e-05,7.836e-05,7.65e-05,7.5e-05,5.234e-05,5.266e-05,5.252e-05,5.25e-05,5.228e-05,5.208e-05,5.088e-05,5.068e-05,4.966e-05,5.018e-05,0.0009966,0.0009966,0.0009994,0.000998,0.0009966,0.0009216,0.0009192,0.0009198,0.000916,0.000909
442,0.00010336,9.682e-05,9.866e-05,0.00010114,9.954e-05,0.00011072,0.0001129,0.00011334,0.0001139,0.00011412,5.478e-05,5.402e-05,5.212e-05,5.256e-05,5.138e-05,5.788e-05,5.714e-05,6.076e-05,5.838e-05,5.612e-05,4.76e-05,4.716e-05,4.776e-05,4.758e-05,4.834e-05,4.844e-05,4.744e-05,4.688e-05,4.67e-05,4.714e-05,0.0007614,0.000761,0.0007636,0.0007638,0.000759,0.000727,0.0007232,0.0007268,0.0007236,0.0007144
444,7.356e-05,6.724e-05,6.996e-05,7.084e-05,7.016e-05,8.33e-05,8.28e-05,8.486e-05,8.572e-05,8.682e-05,4.926e-05,4.804e-05,4.528e-05,4.75e-05,4.652e-05,5.442e-05,5.312e-05,5.608e-05,5.524e-05,5.248e-05,4.302e-05,4.334e-05,4.384e-05,4.362e-05,4.358e-05,4.55e-05,4.44e-05,4.468e-05,4.436e-05,4.4e-05,0.0005298,0.0005312,0.0005362,0.000534,0.0005332,0.0005356,0.0005334,0.0005356,0.0005316,0.0005208
446,6.686e-05,6.308e-05,6.466e-05,6.468e-05,6.498e-05,7.882e-05,7.94e-05,8.12e-05,8.05e-05,8.382e-05,4.896e-05,4.894e-05,4.76e-05,4.796e-05,4.754e-05,5.524e-05,5.556e-05,5.686e-05,5.642e-05,5.466e-05,4.058e-05,4.064e-05,4.162e-05,4.112e-05,4.086e-05,4.396e-05,4.288e-05,4.258e-05,4.164e-05,4.182e-05,0.0003304,0.000329,0.0003334,0.0003314,0.0003298,0.0003588,0.0003564,0.0003574,0.0003574,0.0003482
448,6.858e-05,6.566e-05,6.744e-05,6.814e-05,6.82e-05,8.096e-05,8.176e-05,8.476e-05,8.45e-05,8.74e-05,5.068e-05,5.296e-05,5.064e-05,5.126e-05,5.066e-05,6.008e-05,6.098e-05,6.032e-05,6.12e-05,5.94e-05,4.08e-05,4.082e-05,4.156e-05,4.16e-05,4.122e-05,4.472e-05,4.34e-05,4.294e-05,4.216e-05,4.278e-05,0.0002002,0.00019878,0.0002,0.0002018,0.00019986,0.000241,0.0002412,0.0002434,0.0002412,0.0002314
450,7.348e-05,7.158e-05,7.192e-05,7.234e-05,7.226e-05,8.596e-05,8.656e-05,8.922e-05,8.914e-05,9.182e-05,5.566e-05,5.656e-05,5.448e-05,5.596e-05,5.542e-05,6.538e-05,6.706e-05,6.566e-05,6.842e-05,6.508e-05,4.432e-05,4.356e-05,4.478e-05,4.45e-05,4.488e-05,4.8e-05,4.69e-05,4.638e-05,4.592e-05,4.66e-05,0.0001462,0.00014472,0.00014716,0.00014758,0.00014764,0.00019266,0.00019254,0.00019578,0.00019498,0.00018754
452,7.64e-05,7.328e-05,7.508e-05,7.448e-05,7.516e-05,8.924e-05,8.764e-05,9.374e-05,8.908e-05,9.53e-05,5.82e-05,5.936e-05,5.716e-05,5.898e-05,5.796e-05,6.946e-05,6.986e-05,7.106e-05,7.138e-05,6.962e-05,4.718e-05,4.642e-05,4.722e-05,4.732e-05,4.768e-05,5.142e-05,4.982e-05,4.954e-05,4.894e-05,4.972e-05,0.0001317,0.00012972,0.00013296,0.00013076,0.00013252,0.00017792,0.00018014,0.00018146,0.00018032,0.00017558
454,7.448e-05,7.176e-05,7.202e-05,7.42e-05,7.492e-05,8.76e-05,8.642e-05,9.15e-05,8.95e-05,9.308e-05,5.824e-05,5.97e-05,5.796e-05,5.956e-05,5.768e-05,7.184e-05,7.18e-05,7.256e-05,7.312e-05,7.204e-05,4.852e-05,4.744e-05,4.88e-05,4.92e-05,4.834e-05,5.286e-05,5.24e-05,5.166e-05,5.152e-05,5.14e-05,0.00012456,0.00012258,0.00012534,0.00012536,0.00012366,0.00017376,0.00017224,0.0001752,0.00017532,0.0001694
456,7.314e-05,7.1e-05,7.38e-05,7.372e-05,7.39e-05,8.85e-05,8.642e-05,8.95e-05,8.958e-05,9.176e-05,5.894e-05,5.988e-05,5.864e-05,6.084e-05,6.02e-05,7.324e-05,7.396e-05,7.316e-05,7.536e-05,7.46e-05,5.01e-05,4.966e-05,5.112e-05,5.108e-05,5.032e-05,5.522e-05,5.45e-05,5.358e-05,5.372e-05,5.388e-05,0.00012324,0.00012024,0.00012674,0.00012274,0.00012656,0.0001695,0.00016846,0.00017156,0.0001716,0.00016888
458,7.554e-05,7.37e-05,7.726e-05,7.752e-05,7.834e-05,9.194e-05,8.886e-05,9.414e-05,9.128e-05,9.356e-05,6.308e-05,6.348e-05,6.122e-05,6.208e-05,6.25e-05,7.672e-05,7.778e-05,7.938e-05,7.886e-05,7.862e-05,5.294e-05,5.304e-05,5.442e-05,5.39e-05,5.438e-05,5.904e-05,5.83e-05,5.762e-05,5.758e-05,5.76e-05,0.00012402,0.00012154,0.0001266,0.00012502,0.0001233,0.00016976,0.00017348,0.0001736,0.00017494,0.00016864
460,7.834e-05,7.812e-05,8.198e-05,8.056e-05,8.256e-05,9.344e-05,9.172e-05,9.76e-05,9.432e-05,9.63e-05,6.616e-05,6.526e-05,6.394e-05,6.434e-05,6.408e-05,8.374e-05,8.412e-05,8.532e-05,8.614e-05,8.548e-05,5.622e-05,5.656e-05,5.786e-05,5.812e-05,5.758e-05,6.378e-05,6.298e-05,6.224e-05,6.22e-05,6.266e-05,0.00012402,0.00012246,0.000128,0.00012636,0.00012868,0.00017366,0.00017528,0.0001773,0.00017614,0.00017356
462,8.266e-05,8.17e-05,8.558e-05,8.234e-05,8.454e-05,9.818e-05,9.508e-05,0.00010012,9.752e-05,9.984e-05,6.97e-05,6.824e-05,6.634e-05,6.758e-05,6.732e-05,9.016e-05,9.002e-05,9.148e-05,9.438e-05,9.356e-05,6.026e-05,6.044e-05,6.16e-05,6.218e-05,6.142e-05,6.87e-05,6.828e-05,6.736e-05,6.7e-05,6.766e-05,0.0001248,0.00012462,0.00012858,0.0001281,0.00012804,0.00017544,0.0001773,0.00017868,0.00018014,0.00018052
464,8.82e-05,8.64e-05,8.91e-05,8.73e-05,8.822e-05,0.00010478,0.00010196,0.00010534,0.00010154,0.00010488,7.208e-05,7.096e-05,6.956e-05,7.074e-05,7.238e-05,9.84e-05,9.904e-05,9.968e-05,0.00010106,0.00010238,6.404e-05,6.526e-05,6.59e-05,6.616e-05,6.53e-05,7.45e-05,7.406e-05,7.316e-05,7.302e-05,7.422e-05,0.00012758,0.00012892,0.00013268,0.00012912,0.00012822,0.00017944,0.000182,0.0001804,0.00018594,0.00018696
466,9.248e-05,9.176e-05,9.382e-05,9.38e-05,9.288e-05,0.00010924,0.00010738,0.00011216,0.00010916,0.000108,7.572e-05,7.474e-05,7.354e-05,7.516e-05,7.564e-05,0.00010706,0.00010966,0.00010814,0.00010956,0.00011116,6.982e-05,7.056e-05,7.058e-05,7.208e-05,7.112e-05,8.124e-05,8.112e-05,7.994e-05,8.1e-05,8.212e-05,0.0001317,0.0001338,0.00013704,0.00013528,0.00013448,0.00018446,0.00018994,0.00018922,0.00019254,0.00019214
468,9.67e-05,0.00010048,0.00010148,0.00010098,0.0001011,0.0001172,0.00011552,0.00011784,0.0001174,0.00011664,8.206e-05,7.906e-05,7.894e-05,7.976e-05,8.174e-05,0.00011866,0.00011932,0.00011978,0.00012216,0.00012212,7.712e-05,7.694e-05,7.84e-05,7.968e-05,7.89e-05,9.076e-05,9.062e-05,9.11e-05,9.06e-05,9.11e-05,0.00014228,0.00014354,0.00014544,0.00014548,0.0001451,0.00019316,0.0001996,0.00019802,0.000201,0.0002006
470,0.00010082,0.00010138,0.00010036,0.00010158,0.00010274,0.00011868,0.00011696,0.00012088,0.00011652,0.000117,8.178e-05,8.06e-05,8.018e-05,8.01e-05,8.122e-05,0.00012438,0.00012508,0.00012312,0.00012586,0.00012714,8.01e-05,8.046e-05,8.172e-05,8.234e-05,8.124e-05,9.456e-05,9.424e-05,9.444e-05,9.42e-05,9.564e-05,0.00014402,0.00014484,0.00014642,0.00014374,0.00014356,0.00019272,0.00019716,0.00019724,0.00019918,0.0002036
472,9.918e-05,0.00010216,9.902e-05,0.0001007,0.00010088,0.00011544,0.00011316,0.00011874,0.00011466,0.00011132,7.962e-05,7.828e-05,7.836e-05,7.672e-05,7.952e-05,0.00012522,0.00012434,0.00012424,0.00012708,0.00012812,8.172e-05,8.222e-05,8.222e-05,8.302e-05,8.244e-05,9.666e-05,9.64e-05,9.61e-05,9.578e-05,9.684e-05,0.00013892,0.00013988,0.00014218,0.00014278,0.0001405,0.00018396,0.00019192,0.00019058,0.00019314,0.00019494
474,9.746e-05,0.00010068,9.928e-05,9.882e-05,0.00010076,0.00011308,0.0001117,0.00011598,0.00011246,0.00011062,7.84e-05,7.75e-05,7.688e-05,7.628e-05,7.836e-05,0.00012632,0.00012524,0.00012598,0.00012704,0.00012764,8.3e-05,8.298e-05,8.288e-05,8.362e-05,8.278e-05,9.724e-05,9.756e-05,9.75e-05,9.718e-05,9.776e-05,0.0001367,0.0001361,0.00013958,0.00013866,0.00013676,0.00017786,0.0001837,0.00018374,0.0001855,0.00019006
476,9.114e-05,9.604e-05,9.596e-05,9.63e-05,9.66e-05,0.00010772,0.0001064,0.00010866,0.00010864,0.00010462,7.534e-05,7.392e-05,7.41e-05,7.476e-05,7.548e-05,0.00012332,0.00012378,0.00012288,0.0001245,0.000127,8.074e-05,8.126e-05,8.15e-05,8.23e-05,8.068e-05,9.548e-05,9.656e-05,9.672e-05,9.652e-05,9.698e-05,0.00013024,0.00012952,0.00013162,0.00013116,0.00012936,0.00016666,0.00017016,0.00017018,0.00017398,0.00018096
478,9.042e-05,9.364e-05,9.21e-05,9.636e-05,9.444e-05,0.00010318,0.00010372,0.00010656,0.0001069,0.00010082,7.424e-05,7.252e-05,7.374e-05,7.394e-05,7.492e-05,0.00012572,0.00012636,0.0001249,0.000129,0.00012984,8.156e-05,8.184e-05,8.2e-05,8.254e-05,8.12e-05,9.76e-05,9.804e-05,9.854e-05,9.88e-05,9.912e-05,0.00012518,0.00012584,0.0001262,0.0001267,0.0001283,0.00015884,0.00016338,0.00016352,0.00016972,0.00017388
480,9.456e-05,9.718e-05,9.686e-05,9.73e-05,9.58e-05,0.0001066,0.00010664,0.00010984,0.00010858,0.00010456,7.948e-05,7.89e-05,7.818e-05,7.804e-05,7.852e-05,0.0001408,0.00013668,0.00013794,0.00013948,0.00014056,8.79e-05,8.778e-05,8.754e-05,8.848e-05,8.736e-05,0.00010562,0.00010666,0.00010706,0.00010732,0.00010782,0.00013196,0.0001304,0.00013236,0.0001293,0.00012728,0.00016192,0.00016666,0.00016648,0.00017132,0.0001731
482,0.00010118,0.00010044,0.00010212,0.0001009,0.00010214,0.00011134,0.00011334,0.0001154,0.0001149,0.0001091,8.774e-05,8.652e-05,8.786e-05,8.86e-05,8.776e-05,0.00015492,0.00015328,0.0001548,0.00015572,0.00015752,9.668e-05,9.728e-05,9.706e-05,9.764e-05,9.662e-05,0.00011752,0.00011834,0.00011854,0.00011878,0.00011974,0.00013298,0.00013408,0.00013434,0.00013432,0.00013458,0.00016622,0.00017206,0.00017578,0.00017764,0.00017784
484,0.00010246,0.0001015,0.00010206,0.0001034,0.0001017,0.00011334,0.00011472,0.00011786,0.0001148,0.00010942,9.838e-05,9.506e-05,9.654e-05,9.572e-05,9.56e-05,0.00016724,0.00016586,0.00016552,0.00016902,0.00016886,0.00010364,0.00010328,0.00010252,0.00010272,0.00010174,0.00012452,0.00012622,0.00012576,0.0001263,0.00012698,0.00013442,0.0001362,0.00013718,0.00013414,0.0001357,0.0001671,0.00017062,0.00017432,0.00017666,0.00018114
486,0.00010062,0.00010156,0.00010062,0.00010232,9.908e-05,0.00011306,0.00011344,0.00011474,0.00011256,0.00010932,0.00011074,0.00010926,0.00010958,0.00010892,0.0001111,0.00018172,0.0001814,0.0001813,0.00018272,0.0001835,0.00010916,0.00010874,0.00010812,0.0001088,0.00010788,0.0001304,0.00013228,0.00013202,0.00013166,0.00013326,0.0001329,0.00013554,0.00013616,0.00013098,0.00013484,0.0001646,0.00016728,0.0001693,0.00017446,0.00017978
488,0.00010168,0.00010188,0.0001015,0.0001041,9.94e-05,0.00011404,0.0001146,0.00011554,0.00011268,0.00010894,0.00015372,0.00015182,0.00015554,0.00015264,0.0001545,0.00022,0.0002186,0.00022,0.0002204,0.000223,0.00012858,0.00012812,0.0001272,0.0001281,0.00012716,0.00014678,0.00014796,0.00014834,0.00014828,0.00014956,0.00013536,0.00013854,0.00013822,0.00013574,0.0001366,0.00016476,0.0001692,0.0001699,0.00017374,0.00018152
490,0.0001065,0.00010678,0.00010554,0.00011008,0.0001049,0.00012,0.00011888,0.00011816,0.0001214,0.0001134,0.0003078,0.0003054,0.00031,0.0003068,0.0003088,0.0003474,0.000346,0.0003488,0.0003494,0.0003506,0.0002006,0.0002002,0.00019908,0.0001994,0.00019852,0.0002046,0.0002056,0.000207,0.000207,0.0002086,0.00015158,0.00015442,0.00015328,0.0001534,0.00015072,0.0001777,0.00018246,0.00018546,0.00018678,0.00019244
492,0.00011236,0.00011522,0.0001134,0.00011588,0.0001108,0.00012618,0.00012682,0.00012774,0.0001288,0.00012138,0.0007008,0.0006962,0.0006992,0.0006986,0.0007004,0.0006722,0.0006712,0.0006754,0.000677,0.0006774,0.0003892,0.00039,0.0003882,0.0003876,0.0003868,0.0003584,0.0003604,0.0003612,0.0003614,0.0003634,0.0001844,0.00018914,0.00018754,0.00018538,0.00018148,0.000205,0.0002106,0.0002108,0.0002192,0.0002188
494,0.00011708,0.00012024,0.0001189,0.00012014,0.00011762,0.00013246,0.00013406,0.0001321,0.00013162,0.00012766,0.0014206,0.0014164,0.0014174,0.001419,0.0014168,0.0012796,0.001277,0.0012814,0.0012832,0.0012834,0.0007398,0.0007398,0.0007384,0.0007372,0.0007354,0.0006548,0.0006554,0.000657,0.0006564,0.000658,0.0002358,0.0002366,0.0002382,0.0002326,0.0002338,0.0002514,0.0002508,0.0002562,0.0002596,0.000267
496,0.00012448,0.00012564,0.00012608,0.00012728,0.00012256,0.0001346,0.00013388,0.00013586,0.00013474,0.00013004,0.002208,0.002206,0.002208,0.002208,0.002204,0.0019618,0.0019584,0.0019614,0.001963,0.0019624,0.0011056,0.0011052,0.0011036,0.001102,0.0011,0.000974,0.0009736,0.0009742,0.0009744,0.0009746,0.0002856,0.0002888,0.000284,0.0002848,0.0002848,0.0002942,0.000296,0.0002996,0.0003024,0.0003044
498,0.00013908,0.00014016,0.00013896,0.0001427,0.00013814,0.00014702,0.00014788,0.00014844,0.00014648,0.00014344,0.002978,0.002974,0.002976,0.002976,0.002972,0.002648,0.002644,0.002646,0.002646,0.002646,0.0014,0.0014002,0.0013976,0.0013972,0.001394,0.0012446,0.0012438,0.001243,0.0012434,0.0012426,0.000326,0.0003308,0.0003266,0.000326,0.0003244,0.0003316,0.0003324,0.0003354,0.0003398,0.000341
500,0.00016854,0.00017034,0.00016828,0.0001717,0.0001688,0.00017112,0.00017214,0.0001698,0.00017094,0.00016972,0.003686,0.003682,0.003684,0.003684,0.00368,0.003302,0.003298,0.003302,0.003298,0.0033,0.001593,0.0015936,0.0015912,0.0015906,0.001587,0.0014358,0.0014336,0.0014328,0.0014332,0.0014316,0.0003512,0.0003538,0.0003518,0.000351,0.0003498,0.0003582,0.0003586,0.0003636,0.0003658,0.0003678
502,0.00021,0.0002104,0.0002078,0.0002096,0.0002086,0.0002048,0.000207,0.0002042,0.000205,0.0002036,0.004298,0.004294,0.004296,0.004296,0.004294,0.003882,0.003878,0.003882,0.003878,0.003876,0.0017032,0.001703,0.0017012,0.0017,0.0016972,0.001554,0.0015518,0.00155,0.0015506,0.001548,0.0003648,0.0003684,0.000365,0.0003638,0.0003646,0.0003738,0.0003748,0.0003794,0.000382,0.0003836
504,0.0002412,0.0002426,0.0002418,0.0002416,0.0002404,0.000237,0.0002388,0.0002384,0.0002358,0.0002356,0.004754,0.004754,0.004754,0.004754,0.004752,0.00433,0.004324,0.004328,0.00432,0.004316,0.0017594,0.0017586,0.0017568,0.0017566,0.0017532,0.0016186,0.0016158,0.0016138,0.001614,0.0016112,0.0003688,0.0003762,0.000372,0.00037,0.0003724,0.0003854,0.0003864,0.0003874,0.0003918,0.0003918
506,0.0002604,0.0002604,0.0002578,0.0002588,0.0002568,0.0002576,0.0002566,0.000257,0.000256,0.000254,0.004954,0.004956,0.004956,0.004956,0.00495,0.004552,0.004544,0.004546,0.00454,0.004536,0.0017508,0.00175,0.0017482,0.0017488,0.0017458,0.0016208,0.0016174,0.0016146,0.0016148,0.0016114,0.0003652,0.0003706,0.0003656,0.000366,0.0003608,0.000384,0.000386,0.0003862,0.0003892,0.0003878
508,0.0002648,0.0002666,0.0002646,0.0002644,0.0002628,0.0002654,0.0002684,0.0002654,0.000266,0.0002654,0.004768,0.004768,0.004768,0.00477,0.004764,0.004432,0.004424,0.004426,0.004416,0.004412,0.0016056,0.0016054,0.0016028,0.0016046,0.0016018,0.001506,0.001503,0.0014992,0.0014994,0.0014962,0.0003376,0.0003428,0.000338,0.0003404,0.0003354,0.000365,0.0003664,0.0003704,0.0003678,0.0003694
510,0.0002664,0.0002686,0.0002672,0.0002674,0.0002672,0.0002692,0.0002718,0.0002698,0.0002712,0.0002714,0.004182,0.004186,0.004188,0.004186,0.004182,0.00395,0.003944,0.003946,0.003934,0.00393,0.0012798,0.001279,0.0012774,0.0012792,0.001277,0.001234,0.001231,0.0012262,0.0012284,0.001224,0.0002892,0.0002944,0.0002902,0.0002894,0.000289,0.0003246,0.0003258,0.0003298,0.0003278,0.000329
512,0.000264,0.0002648,0.0002642,0.0002636,0.0002644,0.0002686,0.0002712,0.0002692,0.0002702,0.0002708,0.003348,0.003352,0.003354,0.003354,0.003348,0.003222,0.003218,0.003218,0.00321,0.003206,0.000846,0.0008458,0.0008442,0.0008458,0.0008448,0.000853,0.0008504,0.0008466,0.0008482,0.0008446,0.0002352,0.0002398,0.0002364,0.0002374,0.0002382,0.0002792,0.0002802,0.0002826,0.0002804,0.0002822
514,0.0002486,0.0002498,0.0002498,0.000248,0.0002484,0.0002578,0.0002586,0.0002576,0.000259,0.0002594,0.00249,0.002492,0.002494,0.002494,0.00249,0.002446,0.002442,0.002442,0.002436,0.002432,0.000482,0.000482,0.0004806,0.0004818,0.000481,0.0005118,0.00051,0.0005072,0.000509,0.0005066,0.00019888,0.0002012,0.0002014,0.0002008,0.0002044,0.0002476,0.0002484,0.0002502,0.0002482,0.0002498
516,0.0002188,0.0002186,0.0002196,0.0002176,0.0002194,0.0002314,0.0002332,0.0002326,0.0002346,0.000236,0.001735,0.0017384,0.0017402,0.001738,0.0017368,0.0017522,0.0017504,0.0017516,0.0017456,0.0017428,0.0002934,0.000293,0.000292,0.0002926,0.000292,0.0003214,0.0003202,0.0003186,0.00032,0.000319,0.00018022,0.00018318,0.0001815,0.0001825,0.00018564,0.0002328,0.0002334,0.0002382,0.0002358,0.0002374
518,0.0001847,0.00018514,0.00018538,0.0001838,0.00018632,0.0002028,0.000205,0.000204,0.000206,0.0002052,0.0010816,0.0010854,0.0010854,0.0010832,0.0010828,0.001144,0.0011428,0.0011448,0.001141,0.0011396,0.0002306,0.0002302,0.0002304,0.0002298,0.0002298,0.0002536,0.0002526,0.0002516,0.0002538,0.0002522,0.00016986,0.00017464,0.00017528,0.00017388,0.00017428,0.0002298,0.0002316,0.0002334,0.000229,0.000231
520,0.00016656,0.00016868,0.00016534,0.00016408,0.000169,0.00018554,0.00018872,0.00018748,0.0001879,0.00018814,0.0006544,0.0006576,0.0006556,0.0006564,0.0006562,0.000735,0.0007356,0.0007372,0.0007342,0.0007336,0.0002152,0.0002148,0.000215,0.0002146,0.0002146,0.0002382,0.0002368,0.0002366,0.0002376,0.0002368,0.00016472,0.00016694,0.00016872,0.00016844,0.00016982,0.0002284,0.0002314,0.0002322,0.0002288,0.0002304
522,0.00016092,0.00016144,0.00016064,0.00016054,0.00016322,0.00018182,0.00018524,0.00018438,0.00018636,0.00018708,0.0004616,0.0004636,0.0004624,0.0004624,0.0004628,0.0005404,0.0005426,0.0005438,0.000543,0.0005442,0.000206,0.0002056,0.0002062,0.0002054,0.000206,0.0002302,0.0002292,0.0002292,0.00023,0.0002296,0.00015946,0.00016102,0.00016416,0.00016126,0.00016412,0.0002294,0.0002306,0.0002316,0.0002274,0.0002324
524,0.00016126,0.00016078,0.00015992,0.00016072,0.00016268,0.0001846,0.0001875,0.00018678,0.00018906,0.00018984,0.0003898,0.0003906,0.00039,0.00039,0.0003898,0.0004668,0.0004684,0.0004698,0.00047,0.0004716,0.00019726,0.00019682,0.0001973,0.00019706,0.00019686,0.0002222,0.0002216,0.000221,0.0002224,0.0002212,0.00015344,0.0001546,0.00015492,0.00015464,0.00015844,0.000229,0.0002286,0.0002318,0.0002274,0.0002288
526,0.00016318,0.00016394,0.0001626,0.00016124,0.00016488,0.00018938,0.00019242,0.000191,0.00019242,0.00019598,0.0003562,0.0003572,0.0003564,0.000357,0.0003572,0.000435,0.000437,0.0004384,0.0004384,0.0004392,0.00018924,0.00018932,0.00018996,0.00019006,0.00018946,0.0002152,0.0002146,0.000214,0.000215,0.0002142,0.00014876,0.00014912,0.00014844,0.00014964,0.00015166,0.0002298,0.0002302,0.000233,0.0002296,0.0002312
528,0.00016416,0.0001638,0.00016406,0.00016224,0.00016674,0.00019396,0.00019684,0.00019334,0.00019788,0.00019896,0.000331,0.0003322,0.000331,0.0003316,0.0003308,0.0004106,0.0004132,0.0004138,0.0004146,0.000415,0.0001822,0.00018226,0.00018298,0.00018318,0.00018252,0.0002086,0.0002074,0.0002074,0.0002084,0.0002076,0.000143,0.0001433,0.00014722,0.00014258,0.00014688,0.000232,0.0002326,0.0002342,0.0002316,0.0002352
530,0.00016372,0.00016484,0.00016324,0.00016322,0.00016688,0.00019648,0.0001998,0.00019852,0.0002004,0.000201,0.0003042,0.000306,0.0003044,0.0003056,0.000305,0.0003828,0.0003862,0.0003856,0.0003862,0.0003878,0.00017606,0.00017546,0.00017634,0.0001761,0.00017624,0.0002012,0.0002004,0.0002002,0.0002018,0.0002002,0.00014064,0.00013966,0.00014308,0.00014038,0.0001431,0.0002362,0.0002384,0.0002394,0.0002352,0.0002392
532,0.00016476,0.00016432,0.000165,0.00016394,0.0001669,0.0002004,0.000201,0.0002018,0.000203,0.0002044,0.0002836,0.0002866,0.0002836,0.0002852,0.0002854,0.0003598,0.0003624,0.0003624,0.0003636,0.0003646,0.0001722,0.00017192,0.00017302,0.000173,0.0001728,0.00019682,0.00019562,0.0001955,0.00019664,0.00019588,0.00014182,0.0001403,0.00014392,0.0001432,0.0001455,0.000243,0.0002464,0.0002474,0.0002432,0.0002452
534,0.00016298,0.0001632,0.00016264,0.0001617,0.0001648,0.0002022,0.000203,0.0002038,0.0002058,0.0002072,0.0002682,0.0002706,0.0002682,0.0002694,0.000269,0.0003426,0.000345,0.000344,0.0003462,0.0003474,0.00017004,0.00017014,0.000171,0.0001711,0.0001713,0.0001944,0.00019328,0.00019312,0.00019388,0.000193,0.00014548,0.00014546,0.00014962,0.00014884,0.00014928,0.0002564,0.000258,0.0002576,0.0002568,0.0002602
536,0.0001609,0.00016026,0.00016006,0.000158,0.00016138,0.0002026,0.0002044,0.0002048,0.0002048,0.0002076,0.0002542,0.0002554,0.0002544,0.000255,0.000256,0.000327,0.0003286,0.0003284,0.0003306,0.000331,0.00016896,0.0001683,0.0001693,0.00016954,0.00016976,0.00019232,0.00019122,0.0001914,0.00019186,0.00019156,0.00015392,0.00015284,0.00015662,0.00015604,0.0001576,0.0002728,0.0002744,0.0002746,0.0002736,0.0002754
538,0.0001567,0.00015754,0.00015708,0.0001557,0.00015952,0.0002028,0.0002054,0.0002058,0.0002064,0.0002092,0.0002444,0.0002462,0.0002434,0.0002456,0.000247,0.000315,0.0003168,0.0003156,0.0003188,0.0003192,0.00016818,0.00016748,0.00016874,0.00016874,0.00016894,0.00019084,0.0001903,0.00019014,0.00019056,0.00018994,0.00016434,0.0001619,0.00016786,0.0001667,0.00016616,0.0002922,0.000295,0.0002954,0.0002942,0.0002954
540,0.00015224,0.00015286,0.00015244,0.00015224,0.00015438,0.0002026,0.0002048,0.0002066,0.0002076,0.0002096,0.000239,0.0002398,0.0002364,0.00024,0.0002398,0.0003064,0.0003082,0.0003062,0.0003092,0.000311,0.00016802,0.0001678,0.00016888,0.00016916,0.00016914,0.00018972,0.00018998,0.0001892,0.00018998,0.0001892,0.00017558,0.00017488,0.00017956,0.00018034,0.00018056,0.0003164,0.0003184,0.0003198,0.00032,0.0003214
542,0.00014642,0.00014818,0.00014666,0.00014636,0.00014736,0.0002042,0.000206,0.0002068,0.00021,0.000209,0.0002346,0.000235,0.0002324,0.0002346,0.0002348,0.0002996,0.0003004,0.0003,0.0003022,0.0003042,0.00016888,0.00016844,0.00016986,0.0001699,0.0001701,0.00018968,0.00018968,0.00018962,0.00019004,0.00018928,0.00019784,0.0001944,0.00019742,0.00019636,0.0001974,0.0003476,0.0003512,0.0003524,0.0003522,0.000355
544,0.00014296,0.00014416,0.00014118,0.00014194,0.00014436,0.0002062,0.0002076,0.0002104,0.0002112,0.000212,0.0002322,0.0002336,0.0002302,0.0002334,0.0002324,0.0002966,0.000298,0.000297,0.0002988,0.0003008,0.00017118,0.0001708,0.0001719,0.00017224,0.0001716,0.00019074,0.00019094,0.0001914,0.00019112,0.0001911,0.0002164,0.0002128,0.0002176,0.0002152,0.0002152,0.0003814,0.0003864,0.0003862,0.0003886,0.0003914
546,0.00014094,0.00014156,0.00013932,0.0001401,0.00014178,0.0002094,0.0002126,0.0002152,0.0002154,0.0002176,0.0002312,0.0002322,0.0002302,0.0002322,0.0002324,0.000294,0.000296,0.0002938,0.0002966,0.0003,0.00017214,0.00017212,0.00017302,0.00017306,0.00017302,0.00019184,0.00019252,0.00019238,0.0001926,0.00019276,0.0002376,0.0002344,0.0002374,0.0002376,0.0002374,0.0004168,0.0004224,0.0004228,0.0004248,0.0004298
548,0.00014016,0.00014114,0.00013868,0.0001401,0.0001392,0.0002166,0.0002198,0.0002222,0.0002224,0.0002244,0.0002308,0.0002312,0.0002296,0.0002316,0.000232,0.000293,0.0002956,0.000293,0.0002968,0.000298,0.00017298,0.00017314,0.000174,0.00017376,0.00017452,0.00019356,0.00019412,0.00019376,0.00019372,0.000194,0.000263,0.000259,0.000263,0.000263,0.000261,0.0004554,0.0004616,0.0004654,0.0004664,0.0004678
550,0.00014136,0.0001426,0.00013896,0.00014184,0.0001411,0.0002278,0.0002306,0.000233,0.0002338,0.0002358,0.000231,0.0002312,0.0002296,0.0002316,0.000231,0.000293,0.000294,0.0002932,0.0002952,0.0002974,0.00017412,0.00017426,0.00017542,0.00017522,0.00017498,0.00019502,0.0001959,0.00019542,0.00019492,0.00019556,0.0002888,0.0002858,0.0002916,0.0002898,0.0002864,0.0004998,0.000506,0.000509,0.0005122,0.0005142
552,0.00014522,0.0001469,0.00014464,0.00014724,0.00014562,0.000243,0.000245,0.0002476,0.0002486,0.0002502,0.00023,0.0002296,0.0002286,0.0002318,0.0002308,0.0002928,0.0002954,0.000293,0.0002962,0.0003,0.00017484,0.00017502,0.00017594,0.00017562,0.0001759,0.00019594,0.00019708,0.00019708,0.00019694,0.00019714,0.0003282,0.0003264,0.0003296,0.0003316,0.000329,0.0005554,0.0005602,0.000562,0.0005642,0.0005678
554,0.00015466,0.000155,0.0001538,0.00015772,0.0001553,0.000265,0.0002642,0.0002674,0.0002694,0.0002698,0.0002308,0.0002302,0.000229,0.0002314,0.000231,0.0002942,0.0002964,0.0002938,0.0002972,0.000299,0.00017554,0.00017556,0.0001766,0.00017598,0.0001761,0.00019748,0.00019838,0.00019842,0.00019782,0.00019876,0.0004104,0.0004078,0.0004138,0.0004116,0.0004102,0.0006414,0.0006456,0.0006482,0.000652,0.0006548
556,0.00016664,0.000167,0.00016608,0.00016806,0.00016728,0.0002862,0.0002874,0.000291,0.0002928,0.0002942,0.0002302,0.0002306,0.0002286,0.000232,0.0002304,0.000296,0.0002962,0.000296,0.0002974,0.0003006,0.00017594,0.0001762,0.00017658,0.00017672,0.00017602,0.0001984,0.0001993,0.00019966,0.00019882,0.00019966,0.0006096,0.0006086,0.0006136,0.0006096,0.0006098,0.0008204,0.0008278,0.0008316,0.0008368,0.0008398
558,0.00018144,0.00018356,0.0001825,0.00018448,0.0001829,0.0003114,0.0003142,0.0003176,0.0003182,0.000319,0.0002304,0.0002298,0.0002282,0.0002314,0.0002302,0.0002962,0.0002978,0.0002968,0.0002988,0.0003018,0.00017572,0.0001764,0.00017654,0.00017642,0.00017654,0.00019956,0.0002004,0.0002004,0.0002002,0.0002008,0.0010164,0.0010142,0.0010202,0.0010168,0.001016,0.0011788,0.0011874,0.0011904,0.001197,0.0012042
560,0.0002008,0.0002016,0.0002006,0.0002048,0.0002012,0.00034,0.0003432,0.0003456,0.0003474,0.0003476,0.0002304,0.0002296,0.000228,0.0002312,0.0002298,0.000298,0.000299,0.0002986,0.0003014,0.0003032,0.00017588,0.00017656,0.00017652,0.00017606,0.00017642,0.000201,0.0002018,0.000202,0.000202,0.0002026,0.0016414,0.0016408,0.0016466,0.0016426,0.0016456,0.0017328,0.0017412,0.0017456,0.0017512,0.0017644
562,0.0002216,0.0002238,0.0002226,0.0002256,0.0002228,0.000369,0.0003728,0.0003766,0.0003774,0.0003782,0.0002292,0.0002276,0.000228,0.000229,0.0002286,0.0003006,0.0003012,0.0003014,0.0003034,0.0003056,0.0001757,0.00017622,0.00017594,0.00017598,0.00017578,0.000203,0.0002036,0.0002046,0.0002036,0.0002048,0.002492,0.00249,0.002498,0.002492,0.002506,0.00249,0.002498,0.002504,0.00251,0.002532
564,0.0002592,0.0002612,0.0002596,0.0002632,0.0002606,0.0004132,0.000416,0.0004186,0.00042,0.000421,0.0002248,0.000225,0.000224,0.0002268,0.0002242,0.0003014,0.0003028,0.0003018,0.000305,0.0003068,0.00017376,0.00017464,0.00017478,0.00017388,0.00017428,0.0002046,0.0002054,0.0002058,0.0002052,0.0002066,0.003718,0.003714,0.003724,0.00372,0.003758,0.00359,0.003602,0.0036,0.00361,0.003658
566,0.0003534,0.0003558,0.0003548,0.0003572,0.0003534,0.0004996,0.000502,0.0005062,0.0005068,0.000507,0.0002218,0.000221,0.0002208,0.0002236,0.0002212,0.0003028,0.0003034,0.0003056,0.0003072,0.0003084,0.00017238,0.0001732,0.00017276,0.00017248,0.0001727,0.000206,0.0002072,0.0002076,0.0002076,0.0002086,0.005052,0.005046,0.005062,0.005052,0.005142,0.004806,0.004816,0.004814,0.004826,0.004918
568,0.000605,0.0006074,0.0006072,0.000609,0.000605,0.0007176,0.0007186,0.0007234,0.000724,0.000725,0.0002188,0.000217,0.0002188,0.0002198,0.0002178,0.000306,0.000308,0.0003072,0.0003088,0.0003104,0.0001708,0.00017198,0.00017144,0.00017124,0.00017134,0.000208,0.000209,0.0002098,0.00021,0.000211,0.006418,0.00641,0.006428,0.006416,0.006578,0.006064,0.006074,0.006072,0.006082,0.00624
570,0.0010968,0.0010982,0.0010972,0.0011002,0.0010946,0.0011482,0.0011478,0.0011534,0.0011544,0.0011568,0.0002154,0.0002136,0.000215,0.0002164,0.0002144,0.0003082,0.0003098,0.0003104,0.0003108,0.0003118,0.00016894,0.0001697,0.00016934,0.0001692,0.00016912,0.0002094,0.0002106,0.0002116,0.0002112,0.0002124,0.007762,0.007754,0.007774,0.007762,0.00801,0.007316,0.007326,0.007322,0.007328,0.007562
572,0.001826,0.0018276,0.0018246,0.0018286,0.001821,0.0017942,0.0017914,0.001797,0.0017994,0.0018028,0.0002138,0.000212,0.0002126,0.0002138,0.000213,0.0003116,0.0003126,0.0003136,0.0003156,0.0003172,0.00016666,0.00016798,0.0001668,0.00016664,0.00016724,0.0002116,0.0002124,0.0002138,0.0002132,0.000214,0.009008,0.009,0.009022,0.009012,0.00934,0.008488,0.008498,0.008494,0.008498,0.00881
574,0.00284,0.002842,0.002836,0.002842,0.00283,0.002696,0.002692,0.002696,0.002698,0.002702,0.0002136,0.0002128,0.000215,0.0002156,0.0002138,0.000319,0.0003192,0.0003216,0.0003226,0.000324,0.00016498,0.00016558,0.00016486,0.00016462,0.00016478,0.0002136,0.0002146,0.0002158,0.0002158,0.000217,0.010122,0.010116,0.01014,0.010128,0.010524,0.00955,0.009558,0.009556,0.009558,0.00992
576,0.004118,0.004116,0.00411,0.004116,0.004104,0.003836,0.003832,0.003836,0.003838,0.003842,0.000221,0.0002198,0.0002218,0.0002216,0.0002206,0.000332,0.000333,0.0003352,0.0003364,0.0003356,0.0001642,0.00016516,0.00016376,0.0001634,0.00016426,0.000217,0.0002178,0.0002192,0.0002196,0.00022,0.01104,0.011032,0.011058,0.011046,0.01147,0.010434,0.010442,0.010438,0.010436,0.010826
578,0.005388,0.005386,0.005382,0.005388,0.005376,0.00499,0.004984,0.004988,0.00499,0.004992,0.0002366,0.0002358,0.0002374,0.000238,0.000236,0.0003522,0.0003536,0.0003568,0.0003576,0.0003584,0.0001684,0.0001691,0.00016744,0.00016796,0.00016834,0.0002234,0.0002248,0.0002254,0.0002262,0.0002268,0.01169,0.011682,0.011708,0.011696,0.01209,0.011068,0.011076,0.01107,0.011066,0.011436
580,0.00665,0.006648,0.006642,0.00665,0.006634,0.006152,0.006142,0.006144,0.006144,0.006148,0.000268,0.000267,0.0002694,0.0002696,0.0002668,0.0003878,0.0003904,0.0003926,0.0003952,0.000394,0.00018074,0.0001812,0.00017966,0.00017976,0.0001802,0.0002372,0.0002376,0.000239,0.0002396,0.0002404,0.012142,0.012136,0.012164,0.012152,0.012432,0.011522,0.011528,0.011522,0.011518,0.011792
582,0.007826,0.007822,0.007814,0.007824,0.007806,0.007244,0.007236,0.007232,0.007232,0.007234,0.0003252,0.0003238,0.0003264,0.0003262,0.0003246,0.0004472,0.000448,0.0004518,0.0004542,0.0004522,0.000204,0.0002046,0.0002028,0.0002034,0.0002034,0.0002608,0.000261,0.0002626,0.0002626,0.0002634,0.012408,0.0124,0.012426,0.012418,0.012538,0.011796,0.011798,0.01179,0.011786,0.011912
584,0.008824,0.00882,0.00881,0.00882,0.008804,0.008188,0.008178,0.008172,0.008174,0.00817,0.0004408,0.0004398,0.000442,0.0004416,0.0004406,0.000555,0.0005564,0.0005604,0.0005612,0.0005608,0.000246,0.0002464,0.0002448,0.0002454,0.0002452,0.0002996,0.0002994,0.000302,0.0003018,0.0003024,0.012512,0.012506,0.012528,0.012524,0.0125,0.011912,0.011912,0.011904,0.011904,0.011892
586,0.009604,0.009596,0.009586,0.009598,0.009582,0.008944,0.008932,0.008922,0.008924,0.008918,0.0007264,0.0007242,0.0007274,0.0007262,0.0007244,0.0008092,0.0008114,0.0008156,0.0008182,0.0008174,0.0003358,0.0003362,0.0003352,0.0003352,0.0003346,0.000379,0.00038,0.000381,0.0003812,0.0003818,0.012452,0.012448,0.012466,0.012464,0.01232,0.011872,0.011874,0.01186,0.011862,0.011736
588,0.009998,0.00999,0.009982,0.009992,0.009978,0.009344,0.009332,0.009322,0.009324,0.009316,0.001125,0.0011244,0.0011264,0.0011264,0.0011242,0.0011752,0.0011774,0.0011822,0.0011836,0.0011828,0.0004654,0.0004652,0.0004638,0.0004632,0.0004636,0.0004944,0.0004946,0.0004962,0.0004962,0.0004972,0.012306,0.0123,0.01232,0.012318,0.012116,0.011748,0.01175,0.011734,0.01174,0.011556
590,0.010062,0.010048,0.01005,0.010052,0.010044,0.009452,0.009438,0.009426,0.009428,0.009424,0.0015386,0.0015374,0.0015394,0.0015404,0.001537,0.001569,0.001571,0.0015772,0.0015762,0.001577,0.000634,0.0006344,0.000633,0.0006328,0.0006324,0.000646,0.0006466,0.0006482,0.000648,0.000649,0.012064,0.012062,0.012078,0.012078,0.011852,0.011538,0.011542,0.011526,0.011532,0.01132
592,0.009652,0.009634,0.009644,0.009638,0.009636,0.009146,0.009132,0.009122,0.009116,0.009116,0.0018352,0.001834,0.0018364,0.0018362,0.0018342,0.0018714,0.0018724,0.0018784,0.0018778,0.0018772,0.0008452,0.0008456,0.000844,0.0008436,0.0008426,0.0008352,0.0008358,0.0008374,0.0008376,0.0008382,0.011742,0.011742,0.011756,0.011754,0.011526,0.011256,0.011258,0.011244,0.01125,0.011032
594,0.008676,0.008652,0.00867,0.008658,0.00866,0.00833,0.008314,0.008304,0.008294,0.008298,0.0019734,0.0019732,0.0019748,0.0019756,0.0019724,0.002032,0.002032,0.002038,0.002038,0.002038,0.0010982,0.0010984,0.001097,0.0010966,0.0010948,0.0010642,0.001064,0.001066,0.0010662,0.001066,0.011346,0.011344,0.011356,0.011358,0.01114,0.0109,0.010902,0.01089,0.010894,0.010684
596,0.007096,0.007078,0.007096,0.007086,0.00709,0.00693,0.006914,0.006904,0.006892,0.006896,0.0019966,0.001998,0.0019976,0.002,0.001995,0.00208,0.002082,0.002084,0.002086,0.002084,0.0014102,0.0014102,0.001409,0.0014084,0.0014066,0.0013512,0.0013484,0.0013502,0.0013512,0.0013506,0.010822,0.010826,0.010836,0.01084,0.010644,0.01043,0.010432,0.010416,0.01042,0.010228
598,0.00554,0.005526,0.005538,0.005532,0.005538,0.00549,0.005482,0.005468,0.00546,0.00546,0.0019602,0.0019642,0.0019638,0.0019648,0.0019608,0.002064,0.002066,0.002068,0.002068,0.002066,0.0017184,0.0017178,0.0017164,0.0017152,0.001714,0.001633,0.0016304,0.0016322,0.0016326,0.0016314,0.010322,0.010318,0.010332,0.010336,0.010164,0.009962,0.009964,0.009948,0.009952,0.009782
600,0.004142,0.00413,0.004138,0.004134,0.004142,0.00417,0.004164,0.004152,0.004146,0.004146,0.001919,0.0019218,0.0019216,0.0019218,0.001919,0.002034,0.002032,0.002036,0.002036,0.002036,0.002028,0.002028,0.002026,0.002026,0.002024,0.00192,0.0019162,0.0019182,0.0019188,0.001916,0.009822,0.009822,0.009834,0.009834,0.009688,0.009496,0.009496,0.009482,0.009484,0.00934
602,0.002962,0.002954,0.002962,0.00296,0.002964,0.003046,0.003042,0.003032,0.00303,0.003026,0.0019564,0.001959,0.0019604,0.0019614,0.0019568,0.002058,0.002058,0.002062,0.002062,0.002064,0.00233,0.002328,0.002328,0.002326,0.002324,0.0022,0.002196,0.002198,0.0022,0.002196,0.009342,0.009342,0.009356,0.009354,0.009238,0.009046,0.009048,0.009034,0.009036,0.00892
604,0.002018,0.002012,0.002016,0.002016,0.002018,0.002142,0.00214,0.002132,0.002132,0.00213,0.002216,0.002216,0.002216,0.002218,0.002216,0.002262,0.002262,0.002268,0.00227,0.002272,0.002612,0.002608,0.002608,0.002608,0.002604,0.002466,0.002462,0.002464,0.002464,0.00246,0.00888,0.00888,0.008894,0.008894,0.008796,0.008616,0.00862,0.00861,0.00861,0.008512
606,0.0012414,0.0012382,0.0012416,0.0012406,0.0012442,0.0013916,0.0013932,0.0013886,0.001388,0.001386,0.002846,0.002848,0.002844,0.002848,0.002844,0.002794,0.002796,0.0028,0.002804,0.002804,0.002878,0.002878,0.002878,0.002876,0.002874,0.002724,0.00272,0.00272,0.002722,0.002718,0.008362,0.008364,0.008378,0.008376,0.008294,0.008138,0.008146,0.008134,0.008136,0.008058
608,0.0007978,0.0007966,0.000799,0.0008002,0.000801,0.000951,0.0009544,0.0009506,0.0009508,0.0009516,0.003752,0.003754,0.00375,0.003754,0.00375,0.003586,0.003588,0.003594,0.003596,0.0036,0.003056,0.003054,0.003056,0.003054,0.00305,0.002904,0.002898,0.002898,0.0029,0.002894,0.007792,0.007794,0.007804,0.00781,0.00773,0.007626,0.00763,0.007624,0.007624,0.007554
610,0.000609,0.000609,0.0006106,0.00061,0.0006124,0.0007588,0.0007606,0.0007574,0.00076,0.0007608,0.004794,0.004794,0.004792,0.004796,0.004792,0.004518,0.004518,0.004526,0.004528,0.004534,0.003112,0.00311,0.00311,0.003112,0.003108,0.002976,0.00297,0.00297,0.00297,0.002964,0.00708,0.00708,0.00709,0.007096,0.007014,0.006992,0.006998,0.006986,0.006986,0.006912
612,0.0005306,0.0005306,0.0005342,0.0005334,0.0005342,0.00068,0.0006804,0.000679,0.000682,0.000683,0.005884,0.005886,0.005882,0.005888,0.00588,0.005514,0.00551,0.005518,0.00552,0.005522,0.003028,0.003028,0.003028,0.003028,0.003024,0.002922,0.002918,0.002916,0.002918,0.002912,0.00622,0.006222,0.006228,0.006234,0.006158,0.006212,0.006212,0.006204,0.006204,0.006132
614,0.0004942,0.0004958,0.0004964,0.0004962,0.000497,0.0006432,0.0006456,0.0006422,0.0006468,0.000646,0.006946,0.006948,0.006944,0.00695,0.006944,0.00649,0.006488,0.006496,0.006494,0.006496,0.002802,0.002802,0.0028,0.002802,0.002798,0.002742,0.002738,0.002734,0.002738,0.00273,0.005294,0.005294,0.0053,0.005308,0.005246,0.005354,0.005358,0.00535,0.005348,0.005288
616,0.000476,0.0004778,0.0004776,0.0004764,0.0004798,0.0006234,0.0006258,0.0006248,0.0006266,0.0006274,0.007982,0.007984,0.007976,0.007984,0.007978,0.007462,0.007456,0.007464,0.007462,0.00746,0.002406,0.002406,0.002404,0.002406,0.002404,0.002406,0.002402,0.002398,0.0024,0.002394,0.004278,0.004276,0.004286,0.004288,0.004248,0.004408,0.004408,0.0044,0.004402,0.00436
618,0.0004748,0.000477,0.0004788,0.0004772,0.0004796,0.0006166,0.0006204,0.0006208,0.0006228,0.0006226,0.008776,0.00878,0.008772,0.008782,0.008774,0.008228,0.008226,0.008232,0.008226,0.008226,0.0019382,0.0019374,0.0019364,0.0019396,0.0019374,0.0019916,0.0019876,0.0019846,0.001987,0.0019812,0.003322,0.00332,0.00333,0.003332,0.003304,0.003512,0.003514,0.003508,0.003508,0.003486
620,0.0004926,0.0004946,0.0004972,0.0004942,0.0004962,0.0006286,0.0006322,0.0006324,0.0006352,0.0006358,0.009274,0.00928,0.009272,0.00928,0.009274,0.008726,0.008722,0.008726,0.00872,0.00872,0.001468,0.0014672,0.0014676,0.0014696,0.0014684,0.0015628,0.0015598,0.0015568,0.0015592,0.0015544,0.002472,0.002474,0.002478,0.002484,0.002464,0.002706,0.002712,0.00271,0.002708,0.002694
622,0.000537,0.000539,0.0005414,0.000539,0.000541,0.0006614,0.0006642,0.000665,0.0006688,0.0006696,0.009536,0.009542,0.009536,0.009544,0.009536,0.009002,0.008996,0.009002,0.008994,0.008996,0.0010308,0.0010304,0.0010314,0.0010324,0.001032,0.0011492,0.001148,0.0011446,0.0011474,0.0011428,0.0017198,0.00172,0.0017266,0.0017286,0.0017154,0.001983,0.0019884,0.0019878,0.0019886,0.0019804
624,0.0006122,0.0006144,0.0006174,0.000614,0.000614,0.0007218,0.0007252,0.0007266,0.0007298,0.00073,0.009582,0.00959,0.009582,0.009592,0.009584,0.009074,0.009066,0.009072,0.009064,0.009066,0.000734,0.0007342,0.0007362,0.000736,0.0007362,0.0008452,0.0008444,0.0008422,0.000845,0.0008426,0.001183,0.001182,0.0011858,0.001188,0.0011796,0.001436,0.001443,0.0014424,0.0014456,0.001437
626,0.0007342,0.0007364,0.0007376,0.0007344,0.000737,0.0008216,0.0008254,0.0008236,0.00083,0.0008304,0.009432,0.009438,0.009432,0.009442,0.009436,0.008962,0.008952,0.008954,0.008948,0.008952,0.0007324,0.000733,0.000735,0.0007338,0.000733,0.0007974,0.000797,0.0007976,0.0007988,0.0007988,0.0010298,0.001027,0.001036,0.0010358,0.0010294,0.0012288,0.0012358,0.0012364,0.0012428,0.0012368
628,0.0008854,0.0008876,0.0008886,0.0008842,0.0008858,0.0009486,0.0009528,0.0009544,0.000958,0.0009584,0.009142,0.00915,0.009144,0.009152,0.009146,0.008714,0.008702,0.008704,0.008696,0.0087,0.0010254,0.0010274,0.0010288,0.0010266,0.0010254,0.001032,0.001031,0.0010326,0.0010332,0.001034,0.0012734,0.0012728,0.0012792,0.0012728,0.0012744,0.001402,0.0014122,0.0014128,0.0014178,0.0014156
630,0.0010438,0.0010476,0.0010472,0.0010452,0.0010436,0.0010892,0.001088,0.0010924,0.0010962,0.0010954,0.008794,0.0088,0.008794,0.008804,0.008798,0.008402,0.008386,0.008386,0.008378,0.008382,0.0014336,0.0014354,0.001437,0.0014336,0.0014328,0.0013878,0.0013872,0.001388,0.0013898,0.00139,0.0016742,0.001673,0.0016798,0.0016756,0.0016734,0.0017432,0.0017516,0.0017514,0.0017556,0.0017586
632,0.0012056,0.0012084,0.0012082,0.0012068,0.001206,0.0012304,0.001228,0.0012326,0.0012352,0.0012362,0.008402,0.008406,0.008402,0.00841,0.008406,0.00804,0.008024,0.008024,0.008014,0.008018,0.0018742,0.0018754,0.0018776,0.0018742,0.001873,0.0017834,0.0017818,0.0017824,0.001784,0.001784,0.002118,0.002116,0.002128,0.002126,0.002124,0.00213,0.002142,0.002138,0.002144,0.002146
634,0.001372,0.0013734,0.0013736,0.0013726,0.0013714,0.0013718,0.0013702,0.001375,0.0013774,0.00138,0.00799,0.007996,0.007992,0.007998,0.007994,0.007654,0.00764,0.007642,0.007634,0.007636,0.002318,0.002322,0.002322,0.00232,0.002318,0.002186,0.002184,0.002184,0.002184,0.002184,0.002576,0.002572,0.002586,0.00258,0.002582,0.002528,0.002542,0.002538,0.002544,0.002544
636,0.001553,0.0015524,0.001553,0.0015508,0.0015494,0.0015246,0.0015246,0.0015302,0.0015332,0.0015344,0.007536,0.007544,0.007538,0.007544,0.00754,0.007224,0.007214,0.007216,0.007208,0.007212,0.002798,0.0028,0.002802,0.0028,0.002796,0.002622,0.002618,0.002618,0.00262,0.002618,0.003074,0.003068,0.003086,0.00308,0.003078,0.002968,0.002982,0.00298,0.002982,0.002992
638,0.0017108,0.0017108,0.0017108,0.00171,0.0017078,0.0016612,0.0016616,0.001667,0.0016686,0.0016714,0.007138,0.007146,0.00714,0.007148,0.007146,0.006848,0.00684,0.006844,0.00684,0.006842,0.003218,0.00322,0.003222,0.003218,0.003216,0.003008,0.003004,0.003004,0.003006,0.003004,0.003514,0.00351,0.003524,0.003522,0.003522,0.00337,0.003378,0.003376,0.003378,0.00338
640,0.0018646,0.0018656,0.0018628,0.0018622,0.0018596,0.0017954,0.001796,0.0018006,0.0018014,0.0018022,0.0068,0.006806,0.0068,0.006806,0.006806,0.006526,0.006518,0.006524,0.006522,0.006522,0.003578,0.00358,0.003582,0.003578,0.003576,0.003346,0.003342,0.003342,0.003344,0.00334,0.003876,0.003876,0.003884,0.003888,0.003888,0.003702,0.003712,0.003708,0.003708,0.003714
642,0.002016,0.002016,0.002012,0.002012,0.00201,0.001927,0.0019282,0.0019336,0.0019352,0.001936,0.006496,0.0065,0.006498,0.006504,0.0065,0.006236,0.006234,0.006236,0.006234,0.006236,0.00385,0.003852,0.003854,0.00385,0.003846,0.003608,0.003604,0.003602,0.003604,0.0036,0.004106,0.004102,0.004112,0.004116,0.004118,0.003924,0.003934,0.003928,0.003926,0.003924
644,0.00216,0.00216,0.002158,0.002154,0.002154,0.002056,0.002058,0.002062,0.002064,0.002066,0.006238,0.00624,0.006236,0.006242,0.00624,0.005996,0.005988,0.005996,0.005988,0.005992,0.00402,0.004022,0.004024,0.00402,0.004016,0.003776,0.003772,0.003768,0.00377,0.003766,0.004188,0.004184,0.004192,0.0042,0.004196,0.004006,0.004016,0.004006,0.004004,0.004002
646,0.002326,0.00232,0.00232,0.00232,0.002316,0.002204,0.002204,0.002208,0.00221,0.002212,0.00598,0.005984,0.005982,0.005984,0.005984,0.005756,0.00575,0.005752,0.005746,0.005748,0.004094,0.004096,0.004096,0.004094,0.00409,0.003852,0.003846,0.003842,0.003844,0.00384,0.004182,0.004176,0.004186,0.004192,0.004186,0.003996,0.004,0.003996,0.003994,0.003988
648,0.002466,0.002458,0.002462,0.002456,0.002456,0.00233,0.00233,0.002332,0.002338,0.002334,0.005772,0.005774,0.005774,0.005778,0.005776,0.005564,0.005554,0.00556,0.005552,0.005554,0.004102,0.004104,0.004104,0.004102,0.004096,0.003862,0.003856,0.00385,0.003854,0.00385,0.004144,0.004142,0.004154,0.004156,0.004154,0.00396,0.00397,0.00396,0.003958,0.003952
650,0.00257,0.002566,0.002566,0.002564,0.002562,0.002426,0.002428,0.00243,0.00243,0.00243,0.005542,0.005544,0.005546,0.005546,0.005546,0.00535,0.00534,0.005342,0.005336,0.005338,0.00406,0.004062,0.004062,0.00406,0.004056,0.003826,0.00382,0.003814,0.003816,0.003814,0.004072,0.004072,0.00408,0.00408,0.004084,0.00389,0.003896,0.003884,0.003884,0.00388
652,0.002636,0.002632,0.002632,0.002632,0.002628,0.002484,0.002484,0.002484,0.002488,0.002488,0.005262,0.005264,0.005264,0.005268,0.005266,0.00508,0.00507,0.005072,0.005068,0.005072,0.003942,0.003944,0.003942,0.003942,0.003938,0.003718,0.003712,0.003706,0.003708,0.003706,0.00393,0.003928,0.003936,0.003936,0.00394,0.00375,0.003756,0.003748,0.003742,0.003736
654,0.002682,0.002674,0.002678,0.002674,0.002672,0.002522,0.002522,0.00252,0.002526,0.002526,0.00497,0.004972,0.004972,0.004976,0.004976,0.004798,0.004786,0.004792,0.00479,0.004792,0.003728,0.003732,0.003728,0.003728,0.003724,0.003528,0.003522,0.003518,0.00352,0.003518,0.003688,0.003682,0.003692,0.003698,0.003706,0.00353,0.003538,0.003526,0.00352,0.003518
656,0.002724,0.002716,0.002716,0.002716,0.002718,0.002554,0.002556,0.002556,0.002562,0.002562,0.00469,0.00469,0.00469,0.004694,0.004694,0.004522,0.004516,0.004522,0.004516,0.00452,0.003358,0.003358,0.003354,0.003356,0.003352,0.003198,0.003194,0.00319,0.003192,0.00319,0.003292,0.003294,0.003296,0.003298,0.003304,0.003176,0.003182,0.00317,0.003162,0.003162
658,0.00277,0.002758,0.00276,0.002758,0.002758,0.002592,0.002596,0.002594,0.002598,0.002598,0.004488,0.004486,0.004486,0.00449,0.004488,0.004324,0.004316,0.004322,0.004318,0.00432,0.002936,0.002936,0.002932,0.002934,0.002932,0.00282,0.002816,0.002812,0.002816,0.002812,0.002882,0.002876,0.002882,0.002882,0.002894,0.002794,0.002798,0.00279,0.002784,0.002784
660,0.002808,0.002798,0.002798,0.002798,0.002798,0.00263,0.002634,0.00263,0.002634,0.002634,0.004312,0.004312,0.004316,0.004316,0.004314,0.004156,0.00415,0.004154,0.00415,0.004152,0.002486,0.002486,0.002482,0.002484,0.002484,0.00241,0.002408,0.002404,0.002406,0.002402,0.00245,0.002446,0.00245,0.002452,0.002464,0.002394,0.002404,0.002392,0.00239,0.002386
662,0.002834,0.00282,0.002826,0.002824,0.002824,0.002658,0.002662,0.002656,0.002662,0.002654,0.004154,0.00415,0.004156,0.004154,0.004152,0.004002,0.003998,0.004002,0.003996,0.003998,0.002032,0.002032,0.002028,0.002032,0.002028,0.0019912,0.0019902,0.0019858,0.0019868,0.0019848,0.002014,0.002018,0.002016,0.002018,0.002032,0.0019984,0.0019998,0.0019902,0.0019884,0.0019816
664,0.00282,0.002808,0.00281,0.00281,0.002808,0.002652,0.002656,0.002648,0.002654,0.002652,0.00396,0.003956,0.003964,0.003962,0.003958,0.003828,0.003816,0.003824,0.00382,0.00382,0.0015582,0.0015578,0.0015536,0.0015582,0.0015568,0.0015538,0.0015518,0.0015474,0.001549,0.0015472,0.0015532,0.001562,0.0015602,0.001563,0.0015804,0.001572,0.0015796,0.0015684,0.0015632,0.0015606
666,0.002692,0.002684,0.002688,0.002686,0.002686,0.002556,0.002556,0.002546,0.00255,0.00255,0.003664,0.003666,0.00367,0.003666,0.003668,0.003568,0.003556,0.003564,0.003558,0.003558,0.0010982,0.0010956,0.0010948,0.0010968,0.0010968,0.0011242,0.0011234,0.0011202,0.0011222,0.00112,0.0011116,0.0011146,0.0011138,0.0011134,0.0011324,0.00116,0.0011602,0.0011512,0.0011496,0.001153
668,0.002466,0.002456,0.00246,0.00246,0.002458,0.00236,0.00236,0.00235,0.002356,0.002354,0.003286,0.003286,0.003292,0.003288,0.003288,0.003226,0.003218,0.003224,0.003216,0.003218,0.0007206,0.0007178,0.0007156,0.0007184,0.0007178,0.0007674,0.0007682,0.000765,0.0007662,0.0007642,0.0007412,0.0007484,0.000741,0.0007424,0.0007594,0.0008108,0.00081,0.0008044,0.000802,0.000804
670,0.002174,0.002168,0.00217,0.00217,0.002166,0.0021,0.0021,0.002092,0.002094,0.002096,0.002848,0.002848,0.002852,0.00285,0.00285,0.00283,0.002818,0.002824,0.00282,0.002818,0.0004406,0.0004382,0.0004354,0.0004386,0.000439,0.0004956,0.0004968,0.0004934,0.000496,0.0004946,0.0004688,0.0004728,0.000467,0.0004656,0.0004824,0.000543,0.000542,0.0005384,0.0005352,0.000542
672,0.0018496,0.0018442,0.001845,0.0018478,0.001846,0.0018046,0.001806,0.0017978,0.0018042,0.0018052,0.002392,0.002392,0.002396,0.002396,0.002392,0.002404,0.002396,0.002402,0.002398,0.0024,0.0002892,0.0002866,0.000285,0.0002884,0.0002888,0.0003422,0.0003426,0.0003412,0.0003418,0.000342,0.0003216,0.0003292,0.0003206,0.0003182,0.0003342,0.0003914,0.0003962,0.0003912,0.0003876,0.0003916
674,0.0014716,0.0014628,0.001475,0.0014734,0.0014688,0.0014618,0.0014654,0.0014514,0.0014568,0.0014528,0.0018858,0.0018846,0.0018888,0.0018868,0.0018838,0.0019308,0.0019216,0.001925,0.0019248,0.0019234,0.000226,0.0002242,0.000221,0.0002246,0.0002244,0.0002732,0.0002758,0.0002746,0.0002764,0.0002752,0.0002612,0.0002656,0.0002582,0.0002594,0.0002718,0.0003252,0.0003264,0.0003256,0.0003246,0.0003314
676,0.0011232,0.0011166,0.0011238,0.0011214,0.0011228,0.0011396,0.0011416,0.0011296,0.001133,0.0011322,0.0014366,0.001434,0.001437,0.0014366,0.0014342,0.0015074,0.0014994,0.0015034,0.0015026,0.0015018,0.0002042,0.000201,0.00019734,0.0002024,0.0002036,0.0002482,0.0002516,0.0002494,0.0002508,0.000251,0.0002422,0.0002464,0.000238,0.0002386,0.0002492,0.0002994,0.0003036,0.0003016,0.0002972,0.0003122
678,0.000798,0.000797,0.0008004,0.0008002,0.0007968,0.0008346,0.0008376,0.0008284,0.0008286,0.0008296,0.0010278,0.0010254,0.0010296,0.0010282,0.0010246,0.0011196,0.0011146,0.0011188,0.0011192,0.001116,0.00019076,0.00018714,0.00018322,0.0001887,0.00018924,0.000235,0.0002364,0.000236,0.0002352,0.0002366,0.0002306,0.0002316,0.0002302,0.000222,0.0002398,0.0002874,0.0002954,0.000287,0.0002884,0.0002964
680,0.000522,0.0005204,0.0005248,0.0005236,0.0005194,0.0005712,0.0005742,0.0005668,0.0005672,0.0005638,0.0006806,0.0006776,0.0006818,0.0006832,0.0006782,0.0007862,0.0007794,0.0007812,0.000784,0.0007826,0.00018068,0.00017856,0.00017462,0.00017912,0.0001773,0.0002234,0.0002258,0.000225,0.0002248,0.0002256,0.0002198,0.0002212,0.0002184,0.000218,0.0002334,0.000278,0.000286,0.0002798,0.000279,0.0002798
682,0.0003354,0.0003368,0.000337,0.0003374,0.0003342,0.000383,0.0003902,0.0003764,0.0003796,0.0003754,0.0004468,0.0004406,0.0004462,0.0004436,0.0004416,0.000547,0.0005434,0.0005468,0.0005452,0.0005454,0.0001739,0.0001706,0.0001682,0.00017176,0.00017186,0.0002182,0.0002176,0.0002174,0.0002182,0.0002168,0.0002242,0.000216,0.0002154,0.0002184,0.0002262,0.000272,0.000275,0.0002748,0.0002706,0.0002742
684,0.0002448,0.0002482,0.0002504,0.0002534,0.0002468,0.000298,0.0002968,0.0002874,0.0002928,0.0002898,0.00033,0.0003276,0.0003334,0.0003316,0.0003272,0.0004198,0.0004186,0.0004228,0.0004258,0.000422,0.00016624,0.00016278,0.00016126,0.00016588,0.0001642,0.0002078,0.0002094,0.0002082,0.000209,0.0002096,0.0002152,0.0002148,0.0002136,0.0002122,0.0002208,0.0002636,0.0002642,0.000272,0.0002692,0.000274
686,0.000214,0.0002186,0.0002254,0.000225,0.0002188,0.0002686,0.0002642,0.0002584,0.0002566,0.0002568,0.0002864,0.0002868,0.000287,0.0002866,0.0002864,0.0003692,0.0003676,0.0003736,0.0003708,0.0003704,0.00015728,0.00015356,0.0001519,0.00015586,0.0001544,0.00019624,0.00019638,0.00019654,0.0001965,0.00019566,0.0002102,0.0002028,0.0002056,0.0002028,0.0002108,0.0002534,0.0002562,0.0002546,0.0002608,0.0002624
688,0.000203,0.0002048,0.00021,0.0002064,0.0002014,0.0002484,0.0002438,0.000236,0.0002382,0.000241,0.0002582,0.0002592,0.0002598,0.0002574,0.000261,0.0003376,0.0003358,0.0003418,0.0003376,0.0003352,0.0001465,0.00014296,0.0001421,0.0001468,0.00014376,0.00018356,0.00018256,0.00018276,0.00018142,0.00018284,0.0002022,0.00019518,0.00019714,0.00019204,0.0002084,0.0002418,0.0002442,0.0002456,0.0002494,0.0002512
690,0.0001884,0.00019716,0.0001944,0.000196,0.00018744,0.0002322,0.000229,0.0002208,0.0002218,0.0002244,0.0002382,0.0002354,0.0002412,0.000237,0.000239,0.0003038,0.000313,0.0003134,0.0003106,0.0003092,0.00013486,0.00013234,0.00013348,0.00013596,0.00013526,0.00017198,0.00016906,0.00016922,0.0001686,0.00016962,0.0001978,0.00019192,0.00018416,0.00018836,0.00019792,0.0002264,0.000233,0.0002334,0.000238,0.000239
692,0.00017084,0.00017638,0.00017828,0.00018716,0.0001725,0.000217,0.000213,0.0002074,0.0002036,0.0002036,0.0002166,0.0002144,0.0002186,0.000214,0.0002152,0.0002792,0.0002762,0.000287,0.0002816,0.0002788,0.0001236,0.0001213,0.0001229,0.00012364,0.0001237,0.0001553,0.00015624,0.00015536,0.00015532,0.00015334,0.00019162,0.00018154,0.0001791,0.000179,0.00018872,0.0002174,0.0002154,0.00022,0.0002206,0.0002288
694,0.00015802,0.00016802,0.00016888,0.00016842,0.00016236,0.00019808,0.00019976,0.00019032,0.00018792,0.00019174,0.00019236,0.00019126,0.00019446,0.00019416,0.00019562,0.0002502,0.0002546,0.0002578,0.0002556,0.000252,0.0001143,0.0001103,0.00011278,0.00011416,0.00011268,0.0001412,0.0001399,0.00014082,0.00014244,0.00013574,0.00018216,0.00017014,0.0001721,0.00016566,0.00017076,0.000203,0.00019736,0.0002054,0.0002076,0.0002168
696,0.00014588,0.00015774,0.00015454,0.0001598,0.00015182,0.00018664,0.00018546,0.00017296,0.00017162,0.0001779,0.00017708,0.00017528,0.00017866,0.00017698,0.0001811,0.0002256,0.000234,0.0002344,0.0002356,0.00023,0.00010376,0.00010126,0.00010318,0.00010478,0.00010328,0.0001297,0.00012898,0.00012812,0.00012906,0.00012626,0.00017374,0.00016172,0.00015986,0.0001569,0.00016162,0.00018464,0.00019426,0.00019434,0.000193,0.0002014
698,0.0001354,0.00014684,0.00014114,0.0001524,0.0001397,0.0001737,0.00017036,0.00016382,0.00015938,0.00016392,0.00016276,0.00016112,0.00016126,0.0001606,0.0001685,0.000208,0.000214,0.0002168,0.000215,0.0002112,9.428e-05,9.448e-05,9.632e-05,9.714e-05,9.518e-05,0.00011996,0.00011946,0.0001172,0.00011656,0.00011686,0.0001658,0.00015348,0.00015418,0.00015134,0.00016126,0.00017824,0.00018032,0.0001856,0.00018446,0.0001873
700,0.0001253,0.00013536,0.00013006,0.00014088,0.00012834,0.00015794,0.00016022,0.00015776,0.00015118,0.00015196,0.00014668,0.00014858,0.0001478,0.0001513,0.00015624,0.00019092,0.00019714,0.00019844,0.00019352,0.0001954,8.636e-05,8.712e-05,9.06e-05,8.912e-05,8.97e-05,0.00011092,0.00010904,0.00010844,0.00010682,0.0001063,0.00016072,0.0001406,0.00014576,0.00014596,0.0001519,0.00017546,0.00016516,0.00017252,0.00018188,0.00017864
702,0.00011656,0.0001295,0.00012418,0.00012604,0.00011642,0.00015188,0.00014538,0.00014562,0.0001389,0.00014598,0.00013734,0.0001372,0.00013664,0.0001366,0.00014342,0.00017364,0.00018214,0.00018246,0.00017708,0.0001771,8.086e-05,8.052e-05,8.426e-05,8.358e-05,8.294e-05,0.00010236,9.944e-05,0.00010124,9.77e-05,9.798e-05,0.00015256,0.00013742,0.00014366,0.0001456,0.00015122,0.00016014,0.00015582,0.00016732,0.0001634,0.00017042
704,0.00010982,0.00012236,0.00011992,0.0001201,0.00011908,0.00013772,0.00013934,0.0001338,0.00012646,0.0001373,0.00012856,0.00012998,0.00012826,0.00012938,0.00013758,0.00016016,0.0001718,0.00016658,0.00016776,0.00016596,7.584e-05,7.506e-05,7.938e-05,7.754e-05,7.872e-05,9.514e-05,9.272e-05,9.324e-05,8.996e-05,8.984e-05,0.00014332,0.000134,0.00014104,0.00013726,0.00014712,0.00015634,0.00015526,0.0001565,0.00015254,0.00016354
706,0.00010838,0.00011638,0.0001188,0.00011788,0.00010876,0.000127,0.00013014,0.00013272,0.00012364,0.00012868,0.00012314,0.00012334,0.00012074,0.00012186,0.0001278,0.00015058,0.0001649,0.00015794,0.0001547,0.00015412,7.05e-05,7.184e-05,7.558e-05,7.288e-05,7.506e-05,8.904e-05,8.56e-05,8.644e-05,8.54e-05,8.446e-05,0.00013352,0.00013472,0.00013236,0.00012992,0.00014114,0.00014466,0.00014684,0.00014812,0.00014938,0.00016374
708,0.00010244,0.00011018,0.00011072,0.0001173,0.00010524,0.00012398,0.00012366,0.00012306,0.00011718,0.00011988,0.00011722,0.0001205,0.00011618,0.00011782,0.0001214,0.00014508,0.00015342,0.00014654,0.0001506,0.00014734,6.542e-05,6.872e-05,7.376e-05,6.898e-05,6.978e-05,8.534e-05,8.23e-05,8.09e-05,8.02e-05,8.136e-05,0.00013098,0.00012984,0.00013466,0.00012444,0.00013144,0.00014468,0.000143,0.00014834,0.00014268,0.00016044
710,0.00010196,0.00011146,0.00010726,0.00011146,0.0001088,0.00011572,0.00012334,0.00012266,0.00011628,0.0001207,0.00011766,0.00012064,0.00011404,0.00010934,0.00011944,0.00014042,0.00014886,0.0001421,0.00014168,0.00014478,6.36e-05,6.574e-05,6.964e-05,6.69e-05,6.796e-05,8.158e-05,7.836e-05,7.902e-05,7.506e-05,7.814e-05,0.00012596,0.00013064,0.00012986,0.00012612,0.00011996,0.00013862,0.0001385,0.00013812,0.00014194,0.00014684
712,9.28e-05,0.00010508,0.00010418,0.00010578,0.00010456,0.00010938,0.0001186,0.00011816,0.00011266,0.00011604,0.000113,0.00011484,0.00010892,0.00011136,0.0001199,0.00013468,0.00014388,0.00014058,0.00013602,0.00013626,6.03e-05,6.482e-05,6.768e-05,6.326e-05,6.514e-05,7.794e-05,7.47e-05,7.614e-05,7.19e-05,7.46e-05,0.00012016,0.00012222,0.00012782,0.0001237,0.00010802,0.00013458,0.00013498,0.00013412,0.0001339,0.00014152
714,9.538e-05,9.668e-05,9.908e-05,9.906e-05,0.00010132,0.00010378,0.00011118,0.00010614,0.00010848,0.00010912,0.00010946,0.00011276,0.00010474,0.00010986,0.00011324,0.00012614,0.00013286,0.0001362,0.00013028,0.00013276,5.686e-05,6.394e-05,6.456e-05,6.25e-05,6.212e-05,7.602e-05,7.266e-05,7.206e-05,6.774e-05,7.108e-05,0.00011892,0.00011916,0.00013066,0.0001208,0.00011184,0.00013014,0.00013136,0.00012736,0.00012412,0.000132
716,8.822e-05,8.95e-05,9.426e-05,8.902e-05,9.456e-05,9.752e-05,0.00010348,0.00010276,0.00010044,0.0001047,0.00010678,0.00010558,9.962e-05,0.0001018,0.00010988,0.00012188,0.00012988,0.00012792,0.00012838,0.00012872,5.436e-05,6.06e-05,6.308e-05,5.836e-05,5.946e-05,7.33e-05,6.858e-05,6.7e-05,6.3e-05,6.932e-05,0.0001154,0.00012032,0.00012902,0.00011796,9.846e-05,0.00012448,0.00012122,0.0001237,0.00012218,0.00013526
718,9.23e-05,8.89e-05,8.594e-05,8.726e-05,9.002e-05,9.184e-05,9.384e-05,9.954e-05,0.0001021,9.616e-05,0.00010094,0.0001057,9.31e-05,9.954e-05,0.00010478,0.00010896,0.00012324,0.0001146,0.00011634,0.000116,5.32e-05,5.802e-05,5.812e-05,5.626e-05,5.762e-05,6.96e-05,6.406e-05,6.22e-05,6.164e-05,6.428e-05,0.00010116,0.00011362,0.00011826,0.00011328,9.766e-05,0.00012716,0.0001195,0.00011778,0.00011194,0.00012118
720,7.928e-05,8.292e-05,6.986e-05,8.096e-05,8.69e-05,8.152e-05,8.942e-05,8.612e-05,8.842e-05,9.08e-05,9.212e-05,0.0001037,9.048e-05,8.954e-05,9.862e-05,0.00010428,0.0001125,0.00011086,0.00010764,0.00011266,5.044e-05,5.3e-05,5.628e-05,5.138e-05,5.228e-05,6.68e-05,5.99e-05,5.842e-05,5.624e-05,6.218e-05,9.708e-05,0.00011152,0.00011342,0.00010754,9.776e-05,0.0001078,0.00010818,0.00010636,0.00010488,0.00011016
722,7.594e-05,7.824e-05,6.336e-05,7.604e-05,8.33e-05,8.006e-05,8.264e-05,8.388e-05,8.208e-05,8.398e-05,9.382e-05,0.00010024,9.268e-05,8.736e-05,9.144e-05,9.698e-05,0.00010588,0.000105,0.00010402,0.00010454,4.746e-05,5.22e-05,5.326e-05,4.936e-05,4.988e-05,6.012e-05,5.604e-05,5.506e-05,5.546e-05,6.016e-05,8.792e-05,0.00010478,0.00011004,9.906e-05,8.988e-05,0.00010426,0.00010092,0.0001056,0.0001,0.0001013
724,7.944e-05,7.394e-05,6.014e-05,6.492e-05,7.79e-05,7.286e-05,7.126e-05,8.034e-05,7.506e-05,7.408e-05,8.794e-05,9.73e-05,8.904e-05,8.096e-05,8.864e-05,9.166e-05,0.0001016,0.00010154,0.0001014,0.00010042,4.606e-05,4.968e-05,4.972e-05,4.762e-05,4.866e-05,5.71e-05,5.458e-05,5.062e-05,5.358e-05,5.714e-05,7.94e-05,9.452e-05,0.00011072,9.39e-05,8.518e-05,0.00010238,0.00010018,0.00010096,8.716e-05,9.244e-05
726,8.056e-05,6.782e-05,5.948e-05,6.218e-05,7.99e-05,6.212e-05,7.394e-05,7.164e-05,7.732e-05,7.834e-05,8.68e-05,9.432e-05,8.362e-05,7.806e-05,9.064e-05,8.758e-05,9.666e-05,0.00010236,0.000101,0.00010418,4.802e-05,4.956e-05,4.99e-05,4.546e-05,4.74e-05,5.574e-05,5.348e-05,5.116e-05,5.228e-05,5.748e-05,7.872e-05,8.624e-05,0.0001092,9.334e-05,8.844e-05,0.00010018,9.23e-05,8.99e-05,9.3e-05,9.456e-05
728,7.792e-05,6.8e-05,5.816e-05,5.58e-05,6.948e-05,5.984e-05,6.608e-05,7.062e-05,7.316e-05,6.986e-05,8.686e-05,9.188e-05,8.808e-05,8.486e-05,8.812e-05,8.51e-05,9.98e-05,9.78e-05,9.554e-05,9.766e-05,4.77e-05,4.974e-05,4.862e-05,4.942e-05,4.754e-05,5.666e-05,5.504e-05,5.268e-05,5.04e-05,5.636e-05,7.22e-05,8.45e-05,0.000105,9.162e-05,7.64e-05,8.952e-05,0.00010212,9.546e-05,8.868e-05,8.526e-05
730,7.282e-05,6.36e-05,5.776e-05,5.14e-05,7.232e-05,6.126e-05,7.344e-05,6.852e-05,7.538e-05,7.352e-05,8.162e-05,9.402e-05,8.732e-05,8.312e-05,8.89e-05,9.238e-05,0.000101,9.896e-05,9.734e-05,9.584e-05,4.924e-05,5.208e-05,4.8e-05,4.85e-05,4.968e-05,5.576e-05,5.458e-05,5.232e-05,5.182e-05,5.708e-05,7.262e-05,8.638e-05,0.00010958,9.118e-05,7.274e-05,8.866e-05,9.908e-05,9.388e-05,8.34e-05,8.68e-05
732,7.52e-05,6.172e-05,4.452e-05,4.826e-05,7.072e-05,6.022e-05,6.82e-05,6.998e-05,7.096e-05,7.212e-05,7.868e-05,9.274e-05,9.018e-05,8.208e-05,8.682e-05,8.938e-05,9.706e-05,0.00010156,9.566e-05,9.298e-05,4.99e-05,5.378e-05,4.668e-05,4.792e-05,4.96e-05,5.414e-05,5.316e-05,5.158e-05,5.202e-05,5.87e-05,7.702e-05,8.408e-05,9.896e-05,8.804e-05,7.676e-05,9.542e-05,9.644e-05,8.614e-05,8.61e-05,8.052e-05
734,7.284e-05,5.386e-05,4.01e-05,4.34e-05,6.314e-05,6.17e-05,6.896e-05,6.824e-05,6.772e-05,6.222e-05,8.092e-05,8.946e-05,9.028e-05,7.94e-05,8.34e-05,9.236e-05,9.252e-05,9.852e-05,9.284e-05,8.982e-05,5.122e-05,5.122e-05,4.622e-05,4.508e-05,4.684e-05,5.28e-05,5.148e-05,5.182e-05,5.3e-05,5.87e-05,7.206e-05,8.162e-05,9.104e-05,8.906e-05,6.052e-05,8.554e-05,9.576e-05,9.588e-05,9.374e-05,8.852e-05
736,5.632e-05,4.698e-05,2.918e-05,3.314e-05,6.37e-05,4.172e-05,5.44e-05,5.708e-05,5.902e-05,5.518e-05,6.806e-05,8.664e-05,8.686e-05,7.696e-05,7.518e-05,9.256e-05,8.196e-05,9.258e-05,8.748e-05,8.764e-05,4.544e-05,4.478e-05,3.874e-05,4.132e-05,4.058e-05,4.918e-05,4.944e-05,4.644e-05,4.822e-05,5.162e-05,5.81e-05,7.018e-05,7.942e-05,7.204e-05,6.032e-05,8.34e-05,8.522e-05,7.696e-05,7.708e-05,7.224e-05
738,5.344e-05,3.414e-05,2.696e-05,2.38e-05,4.992e-05,3.656e-05,4.052e-05,5.074e-05,6.532e-05,5.132e-05,6.542e-05,6.744e-05,7.814e-05,6.808e-05,7.216e-05,8.652e-05,7.43e-05,8.896e-05,8.326e-05,8.218e-05,4.24e-05,4.036e-05,3.446e-05,3.838e-05,3.694e-05,4.312e-05,4.394e-05,4.06e-05,4.532e-05,4.806e-05,4.456e-05,5.67e-05,7.276e-05,5.748e-05,4.252e-05,6.696e-05,7.606e-05,7.502e-05,6.464e-05,6.09e-05
740,5.366e-05,2.856e-05,1.9172e-05,2.168e-05,4.31e-05,3.456e-05,4.626e-05,4.168e-05,5.844e-05,4.812e-05,5.97e-05,6.728e-05,7.516e-05,6.382e-05,6.232e-05,7.856e-05,7.45e-05,8.296e-05,8.35e-05,7.318e-05,3.974e-05,3.758e-05,3.178e-05,3.67e-05,3.288e-05,3.716e-05,3.764e-05,3.732e-05,4.148e-05,4.45e-05,4.006e-05,5.13e-05,5.19e-05,5.444e-05,3.114e-05,6.418e-05,7.568e-05,6.022e-05,6.012e-05,4.762e-05
742,5.814e-05,2.89e-05,1.5636e-05,1.42e-05,4.446e-05,2.926e-05,4.366e-05,3.668e-05,4.606e-05,3.82e-05,5.72e-05,6.11e-05,7.444e-05,6.602e-05,6.956e-05,7.742e-05,6.796e-05,8.54e-05,7.958e-05,6.616e-05,4.052e-05,3.492e-05,2.482e-05,3.088e-05,3.222e-05,3.762e-05,3.304e-05,3.356e-05,3.698e-05,3.864e-05,3.466e-05,3.928e-05,5.106e-05,4.042e-05,3.122e-05,5.392e-05,6.474e-05,5.168e-05,6.06e-05,5.82e-05
744,4.618e-05,1.816e-05,9.066e-06,2.386e-06,2.816e-05,3.032e-05,3.114e-05,4.022e-05,4.498e-05,4.014e-05,5.296e-05,5.976e-05,7.55e-05,6.05e-05,5.77e-05,6.976e-05,6.456e-05,7.722e-05,8.298e-05,6.126e-05,3.328e-05,3.218e-05,1.982e-05,3.152e-05,2.842e-05,3.206e-05,3.274e-05,3.364e-05,3.894e-05,3.836e-05,2.432e-05,3.336e-05,4.016e-05,2.63e-05,3.006e-05,4.64e-05,5.586e-05,6.012e-05,5.486e-05,4.87e-05
746,4.318e-05,2.274e-05,1.8742e-05,1.1976e-06,2.73e-05,2.808e-05,3.2e-05,3.332e-05,3.612e-05,3.324e-05,4.54e-05,5.85e-05,6.748e-05,6.202e-05,5.244e-05,7.586e-05,4.908e-05,7.462e-05,7.674e-05,6.308e-05,3.548e-05,3.17e-05,2.122e-05,2.476e-05,2.308e-05,2.678e-05,2.958e-05,3.038e-05,3.552e-05,3.264e-05,2.51e-05,1.3248e-05,4.31e-05,8.982e-06,5.31e-05,5.452e-05,5.61e-05,4.746e-05,4.828e-05,2.844e-05
748,3.348e-05,0,9.918e-06,2.758e-06,2.534e-05,1.819e-05,3.806e-05,2.408e-05,3.198e-05,2.49e-05,4.382e-05,5.224e-05,6.854e-05,5.932e-05,5.008e-05,7.032e-05,5.618e-05,6.444e-05,6.154e-05,5.798e-05,3.34e-05,2.766e-05,1.8138e-05,2.72e-05,2.224e-05,2.676e-05,2.976e-05,2.994e-05,3.22e-05,3.266e-05,2.996e-05,2.426e-05,2.058e-05,1.3932e-05,3.848e-05,5.194e-05,5.648e-05,5.662e-05,4.754e-05,3.084e-05
750,3.208e-05,6.608e-06,9.402e-06,5.674e-06,2.056e-05,1.458e-05,2.83e-05,2.404e-05,2.36e-05,2.078e-05,4.092e-05,5.58e-05,6.86e-05,6.07e-05,4.152e-05,7.512e-05,5.476e-05,6.296e-05,6.75e-05,5.132e-05,3.238e-05,2.316e-05,1.7996e-05,2.388e-05,2.136e-05,2.598e-05,3.118e-05,2.51e-05,3.572e-05,3.102e-05,2.824e-05,2.586e-05,1.994e-05,2.062e-05,1.229e-05,4.128e-05,5.834e-05,5.202e-05,5.454e-05,2.61e-05
752,3.124e-05,6.854e-06,8.234e-06,3.992e-06,2.798e-05,1.8462e-05,3.188e-05,1.8522e-05,3.362e-05,1.271e-05,3.12e-05,5.19e-05,7.13e-05,6.89e-05,5.468e-05,7.466e-05,5.854e-05,5.462e-05,6.316e-05,5.14e-05,3.182e-05,2.152e-05,1.7602e-05,2.476e-05,2.416e-05,2.682e-05,2.934e-05,2.336e-05,3.562e-05,2.906e-05,2.182e-05,2.176e-05,2.068e-05,1.174e-05,2.844e-05,4.954e-05,4.272e-05,3.798e-05,5.166e-05,2.344e-05
754,3.03e-05,1.1244e-05,1.546e-05,3.804e-06,2.476e-05,2.392e-05,2.364e-05,2.606e-05,2.876e-05,1.653e-05,2.62e-05,5.314e-05,6.374e-05,7.204e-05,5.356e-05,7.292e-05,5.464e-05,5.836e-05,6.272e-05,4.842e-05,2.878e-05,2.28e-05,1.81e-05,2.424e-05,1.948e-05,2.788e-05,2.87e-05,2.496e-05,3.484e-05,2.882e-05,3.444e-05,3.56e-05,1.3988e-05,1.9826e-05,3.036e-05,5.296e-05,6.022e-05,4.258e-05,5.364e-05,3.674e-05
756,3.584e-05,1.7846e-05,2.6e-05,8.64e-06,1.973e-05,2.346e-05,2.664e-05,2.676e-05,2.166e-05,1.529e-05,2.698e-05,5.47e-05,6.612e-05,6.926e-05,4.918e-05,7.612e-05,4.808e-05,6.53e-05,6.746e-05,5.246e-05,3.306e-05,2.106e-05,1.8882e-05,2.548e-05,2.13e-05,2.69e-05,3.296e-05,2.462e-05,3.736e-05,2.776e-05,2.748e-05,2.346e-05,1.3162e-05,2.726e-05,6.32e-05,5.156e-05,5.906e-05,4.142e-05,6.088e-05,4.34e-05
758,2.25e-05,1.726e-05,1.794e-05,1.5064e-05,1.5016e-05,1.3558e-05,3.442e-05,2.856e-05,1.4308e-05,2.71e-05,3.222e-05,4.802e-05,6.146e-05,5.976e-05,4.334e-05,8.036e-05,5.276e-05,5.618e-05,7.138e-05,5.426e-05,3.202e-05,1.7248e-05,2.28e-05,2.734e-05,2.528e-05,2.728e-05,3.55e-05,2.898e-05,3.288e-05,2.776e-05,2.188e-05,2.764e-05,2.006e-05,2.574e-05,6.408e-05,5.506e-05,6.236e-05,5.34e-05,7.322e-05,1.7018e-05
760,2.716e-05,1.033e-05,3.188e-05,3.294e-05,1.8144e-05,1.168e-05,3.274e-05,1.4118e-05,1.7356e-05,2.754e-05,3.47e-05,3.694e-05,6.142e-05,5.824e-05,3.554e-05,7.448e-05,4.886e-05,4.832e-05,5.42e-05,5.322e-05,2.884e-05,2.198e-05,2.31e-05,2.856e-05,2.37e-05,2.838e-05,3.266e-05,2.352e-05,3.194e-05,2.28e-05,2.818e-05,3.74e-05,2.468e-06,2.504e-05,4.666e-05,6.424e-05,5.93e-05,5.486e-05,5.224e-05,1.666e-05
762,2.728e-05,1.929e-05,2.292e-05,3.176e-05,1.3688e-05,2.72e-05,3.558e-05,1.7786e-05,2.674e-05,2.42e-05,3.108e-05,4.512e-05,5.72e-05,7.226e-05,4.458e-05,8.2e-05,4.466e-05,6.534e-05,6.656e-05,5.288e-05,3.214e-05,2.086e-05,2.436e-05,2.79e-05,2.356e-05,2.85e-05,3.646e-05,2.536e-05,3.542e-05,2.47e-05,2.446e-05,3.478e-05,0,3.542e-05,6.578e-05,8.656e-05,7.672e-05,6.774e-05,5.918e-05,2.004e-05
764,9.504e-06,1.5902e-05,3.408e-05,3.364e-05,2.288e-05,1.9592e-05,3.874e-05,2.08e-05,2.72e-05,3.16e-05,4.738e-05,4.234e-05,5.866e-05,6.866e-05,3.876e-05,8.346e-05,5.79e-05,6.25e-05,5.38e-05,5.448e-05,3.142e-05,2.23e-05,2.668e-05,3.04e-05,2.182e-05,2.576e-05,3.792e-05,3.19e-05,3.408e-05,2.524e-05,4.632e-05,4.128e-05,1.638e-05,2.478e-05,8.464e-05,8.014e-05,6.982e-05,7.234e-05,7.472e-05,3.128e-05
766,2.13e-05,1.366e-05,3.042e-05,4.18e-05,1.4166e-05,2.676e-05,4.2e-05,1.8746e-05,1.8976e-05,3.884e-05,4.908e-05,3.756e-05,5.286e-05,6.842e-05,4.242e-05,8.238e-05,5.252e-05,6.248e-05,4.866e-05,6.428e-05,3.224e-05,2.314e-05,2.568e-05,3.428e-05,2.578e-05,2.32e-05,3.318e-05,3.182e-05,3.45e-05,2.31e-05,5.456e-05,3.76e-05,1.3568e-05,5.178e-05,8.516e-05,7.882e-05,8.462e-05,8.474e-05,7.006e-05,4.466e-05
768,2.614e-05,2.828e-05,3.254e-05,3.964e-05,3.212e-05,1.6762e-05,3.198e-05,2.004e-05,3.064e-05,2.142e-05,4.17e-05,3.85e-05,4.956e-05,6.298e-05,3.948e-05,7.702e-05,5.166e-05,5.82e-05,5.376e-05,6.358e-05,2.776e-05,2.388e-05,2.972e-05,2.822e-05,2.266e-05,2.926e-05,3.802e-05,3.69e-05,3.59e-05,2.34e-05,6.862e-05,6.486e-05,3.892e-06,2.926e-05,7.82e-05,7.876e-05,9.32e-05,7.78e-05,8.72e-05,4.364e-05
770,1.4912e-05,1.673e-05,4.194e-05,6.872e-05,3.41e-05,2.744e-05,4.968e-05,2.096e-05,2.982e-05,5.024e-05,4.806e-05,4.478e-05,5.918e-05,5.382e-05,3.964e-05,7.982e-05,5.758e-05,5.538e-05,5.604e-05,6.65e-05,2.5e-05,1.9174e-05,2.816e-05,2.996e-05,1.5946e-05,3.31e-05,3.6e-05,4.088e-05,3.282e-05,1.8454e-05,5.768e-05,5.272e-05,2.422e-05,6.728e-05,9.68e-05,0.00010656,9.68e-05,6.48e-05,8.838e-05,2.994e-05
772,2.674e-05,2.368e-05,5.51e-05,6.988e-05,3.538e-05,2.42e-05,5.058e-05,2.16e-05,5.58e-05,3.908e-05,6.398e-05,4.702e-05,4.06e-05,4.812e-05,4.39e-05,7.24e-05,5.198e-05,3.81e-05,4.168e-05,6.96e-05,2.568e-05,1.8898e-05,2.888e-05,3.162e-05,1.8678e-05,2.86e-05,3.578e-05,4.498e-05,3.386e-05,2.106e-05,5.694e-05,4.884e-05,1.4422e-05,7.146e-05,0.0001023,0.00011224,9.462e-05,0.00010432,9.952e-05,2.828e-05
774,3.002e-05,3.168e-05,3.684e-05,6.648e-05,2.572e-05,1.744e-05,3.574e-05,3.372e-05,5.848e-05,4.044e-05,5.716e-05,4.29e-05,4.2e-05,5.044e-05,4.608e-05,8.148e-05,4.35e-05,5.932e-05,5.264e-05,6.56e-05,2.76e-05,2.068e-05,3.016e-05,2.972e-05,1.8098e-05,3.484e-05,4.06e-05,4.048e-05,2.692e-05,1.6768e-05,6.658e-05,5.452e-05,2.076e-05,7.146e-05,9.824e-05,9.842e-05,0.00010866,9.808e-05,0.00010622,3.484e-05
776,1.7296e-05,3.118e-05,5.078e-05,6.864e-05,3.134e-05,1.3822e-05,4.696e-05,3.91e-05,4.102e-05,5.544e-05,6.982e-05,3.43e-05,3.532e-05,5.646e-05,3.414e-05,7.942e-05,5.004e-05,4.654e-05,4.65e-05,5.768e-05,2.656e-05,1.4662e-05,3.142e-05,3.084e-05,1.9268e-05,2.872e-05,3.934e-05,4.78e-05,2.026e-05,2.168e-05,7.83e-05,8.092e-05,4.106e-05,9.23e-05,0.00011734,0.0001191,0.00011434,0.00011048,0.00010372,3.564e-05
778,2.158e-05,4.24e-05,6.036e-05,8.648e-05,3.402e-05,3.204e-05,5.466e-05,2.764e-05,4.396e-05,4.842e-05,6.02e-05,3.27e-05,1.7158e-05,4.632e-05,4.594e-05,7.35e-05,5.486e-05,4.048e-05,3.506e-05,6.75e-05,3.188e-05,1.7562e-05,2.974e-05,2.72e-05,1.5986e-05,3.156e-05,2.804e-05,4.602e-05,1.7158e-05,2.054e-05,9.838e-05,8.894e-05,1.903e-05,8.12e-05,0.0001628,0.00012674,0.0001014,0.00011336,0.00010726,4.48e-05
780,1.1406e-05,5.982e-05,2.768e-05,8.396e-05,4.954e-05,2.432e-05,4.89e-05,4.458e-05,5.284e-05,4.624e-05,8.62e-05,3.69e-05,3.542e-05,3.95e-05,4.222e-05,8.036e-05,4.998e-05,4.784e-05,2.832e-05,6.622e-05,2.522e-05,2.502e-05,4.018e-05,2.668e-05,1.8494e-05,3.416e-05,3.502e-05,4.106e-05,1.8104e-05,2.268e-05,8.94e-05,9.416e-05,3.064e-05,9.882e-05,0.00018086,9.02e-05,9.654e-05,0.00010976,0.00010368,8.838e-05
