Wavelength [nm],Background (Mel),Modulation (Mel),Background (LMS),Modulation (LMS)380,1.6234e-05,9.634e-06,1.5692e-05,2.732e-05,1.5472e-05,1.4216e-05,9.992e-06,9.62e-06,1.7894e-05,1.1626e-05,1.523e-05,1.4128e-05,1.7162e-05,1.204e-05,2.524e-05,1.7284e-05,1.8018e-05,1.057e-05,1.4224e-05,1.525e-05,6.888e-06,5.612e-06,4.252e-06,6.152e-06,7.4e-06,6.9e-06,8.054e-06,5.7e-06,7.592e-06,6.31e-06,2e-05,1.6214e-05,3.238e-05,1.4664e-05,9.698e-06,2.408e-05,1.4824e-05,3.002e-05,2.206e-05,3.19e-05
382,1.494e-05,2.872e-06,1.4022e-05,1.9948e-05,1.0884e-05,1.59e-05,8.348e-06,6.086e-06,1.6276e-05,7.356e-06,1.4492e-05,1.3582e-05,1.469e-05,1.1164e-05,2.49e-05,1.715e-05,1.5662e-05,8.056e-06,2.014e-05,1.266e-05,6.864e-06,7.228e-06,4.834e-06,3.886e-06,6.8e-06,5.802e-06,5.59e-06,6.606e-06,7.322e-06,6.434e-06,1.6334e-05,1.5974e-05,3.254e-05,1.9922e-05,1.9488e-05,2.356e-05,2.022e-05,2.542e-05,1.8782e-05,2.442e-05
384,1.147e-05,3.46e-06,1.5514e-05,1.9614e-05,1.4782e-05,1.2214e-05,4.63e-06,5.984e-06,2.002e-05,9.348e-06,1.275e-05,1.0514e-05,1.2438e-05,1.0646e-05,2.33e-05,1.7202e-05,1.6578e-05,7.926e-06,1.8972e-05,1.4626e-05,6.106e-06,5.7e-06,3.466e-06,5.044e-06,7.718e-06,4.65e-06,5.694e-06,5.044e-06,7.264e-06,3.758e-06,1.2326e-05,1.678e-05,3.556e-05,1.7182e-05,1.9988e-05,2.75e-05,1.5916e-05,2.626e-05,1.348e-05,2.596e-05
386,1.2594e-05,8.308e-06,1.2544e-05,2.326e-05,1.6686e-05,9.408e-06,6.976e-06,8.362e-06,1.9596e-05,9.992e-06,1.1446e-05,8.994e-06,1.5438e-05,8.524e-06,2.302e-05,1.6802e-05,1.5166e-05,6.718e-06,1.6016e-05,1.568e-05,6.016e-06,5.688e-06,4.372e-06,3.984e-06,7.73e-06,5.256e-06,5.312e-06,5.932e-06,8.408e-06,4.548e-06,8.81e-06,1.4356e-05,3.54e-05,1.8162e-05,1.8088e-05,3.47e-05,1.0028e-05,2.072e-05,1.3782e-05,2.476e-05
388,1.1846e-05,9.582e-06,1.3328e-05,1.8794e-05,1.7032e-05,1.0048e-05,5.812e-06,8.054e-06,1.4246e-05,9.116e-06,1.354e-05,8.938e-06,1.6998e-05,7.814e-06,2.112e-05,1.5282e-05,1.6758e-05,6.34e-06,1.6366e-05,1.4142e-05,4.652e-06,5.63e-06,4.108e-06,4.102e-06,7.438e-06,4.67e-06,4.43e-06,5.574e-06,7.158e-06,5.112e-06,1.1538e-05,1.4724e-05,3.202e-05,1.7984e-05,9.996e-06,3.398e-05,1.4294e-05,2.798e-05,1.8622e-05,2.408e-05
390,1.3876e-05,7.35e-06,1.5044e-05,1.8594e-05,1.4386e-05,1.4262e-05,5.59e-06,2.972e-06,1.6174e-05,8.328e-06,1.29e-05,9.306e-06,1.8962e-05,7.872e-06,1.8072e-05,1.6014e-05,1.7738e-05,6.36e-06,1.6148e-05,1.308e-05,4.712e-06,5.742e-06,4.152e-06,3.708e-06,7.476e-06,5.22e-06,4.16e-06,5.686e-06,7.652e-06,5.278e-06,1.145e-05,1.631e-05,2.488e-05,1.8512e-05,1.5232e-05,2.452e-05,1.779e-05,2.308e-05,2.43e-05,2.526e-05
392,1.3878e-05,8.004e-06,1.0692e-05,1.6204e-05,1.309e-05,1.8622e-05,1.127e-05,1.7116e-06,1.6052e-05,9.894e-06,1.2246e-05,8.846e-06,1.8932e-05,6.318e-06,1.5282e-05,1.563e-05,1.7422e-05,5.83e-06,1.5658e-05,1.3022e-05,2.988e-06,6.532e-06,2.816e-06,2.846e-06,8.06e-06,5.48e-06,4.92e-06,6.396e-06,7.466e-06,4.598e-06,1.086e-05,1.4612e-05,1.9366e-05,1.8956e-05,9.53e-06,3.022e-05,2.202e-05,8.354e-06,1.9782e-05,2.31e-05
394,1.4882e-05,6.666e-06,1.061e-05,1.8476e-05,1.085e-05,1.6944e-05,8.936e-06,3.76e-06,1.603e-05,1.079e-05,1.2398e-05,6.834e-06,1.7872e-05,9.914e-06,1.8212e-05,1.4648e-05,1.64e-05,7.18e-06,1.4234e-05,1.1056e-05,2.624e-06,4.37e-06,2.63e-06,4.04e-06,6.194e-06,4.93e-06,4.92e-06,5.178e-06,8.286e-06,5.486e-06,8.916e-06,1.6642e-05,2.418e-05,1.1792e-05,5.57e-06,2.986e-05,1.1052e-05,1.2968e-05,1.5194e-05,2.254e-05
396,1.0492e-05,8.954e-06,8.882e-06,1.3458e-05,1.2624e-05,1.247e-05,4.552e-06,7.48e-06,1.5306e-05,8.748e-06,1.0642e-05,4.082e-06,1.596e-05,7.432e-06,1.7824e-05,1.5e-05,1.5744e-05,8.218e-06,1.6232e-05,1.1672e-05,2.994e-06,4.8e-06,3.238e-06,4.356e-06,5.036e-06,4.812e-06,4.57e-06,6.644e-06,7.996e-06,5.36e-06,3.82e-06,2.274e-05,1.7278e-05,1.9644e-05,1.2324e-05,2.734e-05,1.5218e-05,1.935e-05,1.6152e-05,1.5846e-05
398,1.2296e-05,5.712e-06,9.726e-06,1.7988e-05,1.2858e-05,1.8418e-05,9.822e-06,2.648e-06,1.5088e-05,9.578e-06,1.1852e-05,7.376e-06,1.7962e-05,5.998e-06,1.5838e-05,1.217e-05,1.4816e-05,6.634e-06,1.8652e-05,1.4448e-05,2.906e-06,5.038e-06,3.95e-06,3.294e-06,4.202e-06,5.708e-06,4.56e-06,5.742e-06,6.72e-06,4.896e-06,7.146e-06,1.8122e-05,1.116e-05,2.042e-05,9.608e-06,2.728e-05,1.7382e-05,2.98e-06,2.4e-05,1.0936e-05
400,1.1656e-05,8.952e-06,1.1208e-05,1.3456e-05,1.4062e-05,1.6618e-05,7.762e-06,1.5836e-06,1.4908e-05,1.2088e-05,1.164e-05,5.132e-06,1.6206e-05,8.344e-06,1.3908e-05,1.0396e-05,1.2926e-05,7.894e-06,1.6086e-05,1.1852e-05,2.796e-06,3.846e-06,4.324e-06,3.384e-06,3.896e-06,5.58e-06,3.384e-06,6.372e-06,6.418e-06,4.834e-06,1.098e-05,2.024e-05,1.7676e-05,1.8404e-05,1.151e-05,2.45e-05,1.3604e-05,1.1212e-05,1.9128e-05,1.2068e-05
402,1.0546e-05,1.0266e-05,7.788e-06,1.7766e-05,1.067e-05,1.6072e-05,7.284e-06,6.04e-06,1.8426e-05,1.1682e-05,1.0362e-05,7.19e-06,1.6234e-05,9.178e-06,1.3676e-05,1.1482e-05,1.2354e-05,8.392e-06,1.6368e-05,9.712e-06,2.69e-06,5.002e-06,3.882e-06,3.984e-06,4.062e-06,4.718e-06,3.42e-06,6.78e-06,6.29e-06,5.996e-06,1.0904e-05,2.162e-05,1.3226e-05,2.09e-05,1.0186e-05,3.21e-05,1.7638e-05,1.0688e-05,1.9032e-05,1.0404e-05
404,1.3102e-05,9.806e-06,5.726e-06,1.4916e-05,1.0146e-05,1.946e-05,9.408e-06,5.97e-06,1.645e-05,1.1658e-05,1.2154e-05,4.462e-06,1.6388e-05,9.28e-06,1.2882e-05,1.0342e-05,1.0602e-05,5.166e-06,1.7286e-05,1.1952e-05,2.506e-06,4.574e-06,3.494e-06,3.974e-06,3.814e-06,6.242e-06,3.906e-06,6.46e-06,5.946e-06,6.3e-06,1.0894e-05,2.048e-05,9.02e-06,2.128e-05,1.3934e-05,3.024e-05,1.7368e-05,1.243e-05,1.5672e-05,1.1024e-05
406,9.622e-06,1.0336e-05,4.6e-06,1.5046e-05,1.4452e-05,1.8534e-05,7.474e-06,5.994e-06,1.5108e-05,9.93e-06,1.0616e-05,4.132e-06,1.556e-05,7.928e-06,1.0976e-05,9.818e-06,1.0554e-05,5.314e-06,1.5922e-05,9.686e-06,2.018e-06,4.65e-06,3.228e-06,3.142e-06,3.674e-06,5.598e-06,3.606e-06,6.342e-06,5.49e-06,5.614e-06,1.5816e-05,2.246e-05,1.2072e-05,2.02e-05,1.2228e-05,2.77e-05,1.4496e-05,1.2392e-05,1.442e-05,1.4628e-05
408,8.628e-06,1.4412e-05,9.15e-06,1.1786e-05,1.3178e-05,1.676e-05,7.156e-06,7.874e-06,1.4414e-05,9.68e-06,1.1378e-05,5.486e-06,1.655e-05,9.13e-06,9.868e-06,1.169e-05,1.0072e-05,6.924e-06,1.3516e-05,6.942e-06,1.9878e-06,3.966e-06,1.9564e-06,2.706e-06,2.794e-06,5.472e-06,3.506e-06,6.294e-06,4.816e-06,5.18e-06,1.3104e-05,2.364e-05,1.3692e-05,2.4e-05,1.3594e-05,2.828e-05,1.5558e-05,4.92e-06,1.4156e-05,1.2514e-05
410,1.3146e-05,1.437e-05,6.68e-06,1.278e-05,1.13e-05,1.4182e-05,8.364e-06,5.456e-06,1.7916e-05,1.3446e-05,8.78e-06,6.596e-06,1.5942e-05,1.0258e-05,9.914e-06,9.522e-06,7.5e-06,7.146e-06,1.1302e-05,5.674e-06,2.644e-06,4.57e-06,2.344e-06,3.652e-06,3.108e-06,4.814e-06,3.578e-06,4.742e-06,5.624e-06,5.55e-06,1.474e-05,2.34e-05,1.071e-05,2.206e-05,1.8046e-05,2.082e-05,1.7296e-05,3.822e-06,1.8098e-05,1.5852e-05
412,1.4536e-05,1.6912e-05,9.346e-06,1.223e-05,1.2306e-05,1.348e-05,1.2572e-05,9.218e-06,1.4706e-05,1.2592e-05,8.68e-06,5.99e-06,1.4638e-05,1.0686e-05,1.18e-05,9.182e-06,1.0062e-05,6.652e-06,1.1436e-05,8.82e-06,2.06e-06,3.552e-06,3.742e-06,4.018e-06,2.444e-06,5.59e-06,3.776e-06,5.208e-06,4.814e-06,4.78e-06,2.064e-05,2.668e-05,1.3674e-05,2.24e-05,1.5882e-05,2.448e-05,2.1e-05,6.614e-06,2.34e-05,1.5886e-05
414,1.9792e-05,1.8032e-05,1.1966e-05,1.481e-05,1.4262e-05,1.6988e-05,1.261e-05,1.2122e-05,1.8232e-05,1.5212e-05,1.1644e-05,5.994e-06,1.6258e-05,1.088e-05,9.328e-06,9.916e-06,8.932e-06,8.694e-06,1.2554e-05,7.568e-06,2.232e-06,3.904e-06,4.614e-06,4.754e-06,3.142e-06,6.288e-06,4.13e-06,5.208e-06,5.15e-06,5.626e-06,2.364e-05,2.54e-05,1.8236e-05,2.842e-05,2.53e-05,3.012e-05,2.482e-05,1.6262e-05,3.172e-05,2.476e-05
416,3.034e-05,2.964e-05,2.398e-05,2.724e-05,2.428e-05,2.764e-05,2.582e-05,2.428e-05,2.918e-05,2.828e-05,1.349e-05,1.1074e-05,1.8438e-05,1.3304e-05,1.4e-05,1.1764e-05,1.0522e-05,1.1866e-05,1.459e-05,1.2224e-05,3.278e-06,4.37e-06,4.884e-06,5.142e-06,3.286e-06,6.83e-06,4.406e-06,6.008e-06,6.272e-06,5.316e-06,4.152e-05,4.62e-05,3.566e-05,4.316e-05,4.232e-05,4.4e-05,4.166e-05,3.07e-05,4.358e-05,3.642e-05
418,6.05e-05,6.368e-05,6.036e-05,5.954e-05,6.06e-05,5.976e-05,5.626e-05,5.768e-05,5.808e-05,5.856e-05,2.356e-05,2.14e-05,2.926e-05,2.422e-05,2.414e-05,2.154e-05,1.9708e-05,2.16e-05,2.168e-05,2.188e-05,5.38e-06,5.964e-06,6.98e-06,6.628e-06,4.962e-06,8.272e-06,6.466e-06,7.72e-06,7.794e-06,7.482e-06,8.616e-05,8.952e-05,8.374e-05,9.072e-05,8.358e-05,8.342e-05,8.31e-05,7.566e-05,8.34e-05,7.882e-05
420,0.00012384,0.0001271,0.000122,0.0001235,0.00012272,0.00012016,0.00011574,0.00011526,0.00011806,0.0001183,4.226e-05,4.036e-05,4.468e-05,4.246e-05,3.966e-05,3.884e-05,3.804e-05,4.022e-05,3.992e-05,3.724e-05,8.92e-06,9.202e-06,9.856e-06,9.504e-06,8.392e-06,1.1078e-05,1.0476e-05,1.0392e-05,9.746e-06,1.0822e-05,0.00016738,0.00017212,0.0001677,0.00017516,0.00016834,0.00016342,0.00015994,0.00015218,0.00016316,0.00016106
422,0.00021,0.0002106,0.000207,0.0002078,0.0002076,0.00019842,0.00019782,0.00019796,0.0002004,0.0002002,6.594e-05,6.348e-05,6.78e-05,6.668e-05,6.544e-05,6.238e-05,6.108e-05,6.2e-05,6.456e-05,6.17e-05,1.3698e-05,1.4082e-05,1.4396e-05,1.455e-05,1.2922e-05,1.4954e-05,1.5212e-05,1.423e-05,1.3824e-05,1.4834e-05,0.000292,0.0002952,0.00029,0.0002954,0.000295,0.0002778,0.0002776,0.0002774,0.0002802,0.0002778
424,0.0003,0.0003022,0.000296,0.0002974,0.0002984,0.000288,0.0002872,0.000288,0.0002888,0.0002908,9.146e-05,8.93e-05,9.356e-05,9.188e-05,9.312e-05,8.802e-05,8.572e-05,8.928e-05,8.802e-05,8.796e-05,1.967e-05,1.996e-05,2.02e-05,2.07e-05,1.907e-05,2.092e-05,1.9986e-05,1.956e-05,1.9414e-05,2.054e-05,0.0004548,0.0004576,0.0004484,0.0004558,0.0004544,0.0004356,0.0004336,0.0004318,0.0004336,0.0004342
426,0.0003866,0.0003842,0.000386,0.0003832,0.0003816,0.0003738,0.0003716,0.0003736,0.0003752,0.0003784,0.00011734,0.00011702,0.00011904,0.0001159,0.00011484,0.00011316,0.00011152,0.00011632,0.00011226,0.00011268,2.768e-05,2.75e-05,2.872e-05,2.878e-05,2.7e-05,2.824e-05,2.806e-05,2.788e-05,2.756e-05,2.878e-05,0.0006632,0.0006638,0.0006608,0.0006678,0.0006624,0.0006342,0.0006384,0.0006398,0.0006386,0.0006414
428,0.000457,0.0004586,0.0004574,0.0004538,0.0004528,0.0004476,0.0004462,0.0004492,0.0004466,0.0004494,0.00013858,0.00013822,0.00014032,0.00013804,0.0001392,0.00013532,0.00013128,0.00013732,0.0001354,0.00013546,3.72e-05,3.71e-05,3.828e-05,3.788e-05,3.674e-05,3.724e-05,3.628e-05,3.618e-05,3.678e-05,3.72e-05,0.0009074,0.0009072,0.0009086,0.000905,0.000904,0.0008776,0.0008746,0.0008818,0.0008766,0.000879
430,0.0005158,0.0005154,0.0005164,0.000511,0.0005116,0.0005064,0.0005054,0.0005074,0.0005048,0.0005078,0.00015616,0.00015422,0.00015662,0.00015648,0.00015498,0.00015276,0.00015004,0.00015454,0.00015264,0.00015166,4.63e-05,4.618e-05,4.708e-05,4.688e-05,4.566e-05,4.604e-05,4.496e-05,4.512e-05,4.546e-05,4.566e-05,0.0011308,0.0011288,0.001129,0.0011272,0.0011246,0.0010978,0.0010998,0.0011078,0.0010992,0.0011062
432,0.0005486,0.0005504,0.0005512,0.0005468,0.0005448,0.0005438,0.000544,0.0005434,0.000542,0.0005466,0.00016586,0.00016688,0.00016588,0.00016774,0.00016634,0.00016492,0.00016238,0.00016542,0.00016422,0.00016288,5.378e-05,5.344e-05,5.43e-05,5.392e-05,5.318e-05,5.352e-05,5.264e-05,5.256e-05,5.25e-05,5.316e-05,0.0012918,0.0012892,0.0012936,0.001289,0.0012874,0.0012688,0.0012726,0.0012812,0.0012724,0.0012738
434,0.0005388,0.0005392,0.0005412,0.0005364,0.0005338,0.0005382,0.0005408,0.0005398,0.0005384,0.000544,0.00016384,0.00016616,0.00016366,0.00016548,0.00016486,0.0001642,0.0001635,0.00016704,0.00016368,0.00016322,5.858e-05,5.84e-05,5.882e-05,5.886e-05,5.808e-05,5.812e-05,5.818e-05,5.736e-05,5.77e-05,5.842e-05,0.0013674,0.0013654,0.0013658,0.001365,0.001361,0.0013554,0.0013588,0.0013676,0.0013572,0.0013596
436,0.0004662,0.0004654,0.000468,0.0004632,0.0004624,0.0004714,0.000476,0.000477,0.000473,0.0004778,0.00014664,0.00014724,0.0001448,0.00014748,0.00014632,0.00014802,0.00014766,0.00015024,0.00014744,0.00014736,5.986e-05,5.982e-05,6.026e-05,6.042e-05,5.894e-05,5.978e-05,5.966e-05,5.908e-05,5.926e-05,6.034e-05,0.001342,0.0013398,0.0013374,0.0013358,0.0013358,0.0013396,0.001342,0.0013512,0.0013436,0.0013434
438,0.0003422,0.000344,0.0003446,0.0003394,0.000338,0.0003502,0.0003554,0.0003576,0.0003562,0.0003588,0.00011502,0.00011552,0.00011356,0.00011552,0.00011462,0.00011674,0.0001159,0.00012032,0.00011668,0.00011658,5.842e-05,5.826e-05,5.92e-05,5.902e-05,5.784e-05,5.868e-05,5.844e-05,5.752e-05,5.792e-05,5.884e-05,0.0012318,0.001228,0.0012264,0.0012238,0.0012254,0.0012388,0.001239,0.0012456,0.0012358,0.0012412
440,0.0002024,0.0002066,0.0002044,0.0002014,0.000202,0.0002152,0.0002166,0.0002196,0.0002174,0.0002184,7.814e-05,7.92e-05,7.73e-05,8.148e-05,7.964e-05,8.016e-05,8.122e-05,8.464e-05,7.958e-05,8.062e-05,5.476e-05,5.426e-05,5.51e-05,5.438e-05,5.444e-05,5.462e-05,5.466e-05,5.372e-05,5.436e-05,5.444e-05,0.0010516,0.0010488,0.001046,0.0010454,0.0010436,0.0010578,0.0010628,0.001073,0.001056,0.0010638
442,0.0001049,0.00010554,0.00010724,0.00010142,0.00010222,0.00011104,0.00011312,0.0001151,0.00011102,0.00011488,5.524e-05,5.764e-05,5.336e-05,5.578e-05,5.46e-05,5.774e-05,5.418e-05,5.968e-05,5.482e-05,5.806e-05,5.032e-05,4.94e-05,5.036e-05,4.958e-05,4.928e-05,4.998e-05,4.986e-05,4.96e-05,4.954e-05,4.982e-05,0.0008104,0.0008044,0.0008032,0.0008002,0.0007994,0.0008206,0.0008264,0.0008356,0.0008194,0.0008216
444,7.062e-05,7.262e-05,7.28e-05,6.604e-05,6.814e-05,7.35e-05,7.572e-05,7.538e-05,7.282e-05,7.73e-05,5.022e-05,5.028e-05,4.65e-05,4.984e-05,4.854e-05,5.052e-05,4.634e-05,5.192e-05,4.82e-05,5.002e-05,4.528e-05,4.514e-05,4.544e-05,4.53e-05,4.466e-05,4.612e-05,4.628e-05,4.496e-05,4.562e-05,4.62e-05,0.0005658,0.000561,0.0005628,0.0005612,0.0005584,0.0005832,0.0005888,0.0005978,0.0005864,0.0005844
446,6.114e-05,6.446e-05,6.49e-05,6.042e-05,6.232e-05,6.32e-05,6.63e-05,6.598e-05,6.526e-05,6.798e-05,4.96e-05,5.118e-05,4.63e-05,5.056e-05,5.012e-05,5.07e-05,4.932e-05,5.222e-05,4.926e-05,5.05e-05,4.176e-05,4.182e-05,4.21e-05,4.194e-05,4.206e-05,4.248e-05,4.218e-05,4.156e-05,4.292e-05,4.278e-05,0.0003518,0.0003482,0.0003482,0.0003452,0.0003428,0.0003638,0.000371,0.0003818,0.0003672,0.0003698
448,6.442e-05,6.6e-05,6.702e-05,6.35e-05,6.72e-05,6.278e-05,6.594e-05,6.928e-05,6.606e-05,6.912e-05,5.428e-05,5.41e-05,5.042e-05,5.53e-05,5.272e-05,5.498e-05,5.252e-05,5.334e-05,5.19e-05,5.338e-05,4.29e-05,4.262e-05,4.292e-05,4.214e-05,4.254e-05,4.252e-05,4.286e-05,4.238e-05,4.304e-05,4.294e-05,0.000207,0.0002054,0.0002038,0.0002026,0.0002022,0.00021,0.0002222,0.0002302,0.0002194,0.0002188
450,7.084e-05,7.068e-05,7.242e-05,6.87e-05,7.1e-05,6.836e-05,7.078e-05,7.336e-05,7.138e-05,7.392e-05,5.92e-05,5.9e-05,5.548e-05,5.876e-05,5.752e-05,5.914e-05,5.582e-05,5.906e-05,5.62e-05,5.758e-05,4.652e-05,4.55e-05,4.574e-05,4.584e-05,4.578e-05,4.584e-05,4.578e-05,4.532e-05,4.602e-05,4.608e-05,0.00014942,0.00014318,0.0001419,0.00014044,0.00014386,0.00014292,0.00015152,0.00016004,0.00015166,0.00015482
452,7.078e-05,7.296e-05,7.516e-05,7.084e-05,7.302e-05,6.948e-05,7.344e-05,7.588e-05,7.46e-05,7.572e-05,6.006e-05,6.132e-05,5.792e-05,6.134e-05,5.986e-05,6.238e-05,5.954e-05,6.302e-05,6.07e-05,6.104e-05,4.92e-05,4.802e-05,4.854e-05,4.91e-05,4.91e-05,4.866e-05,4.84e-05,4.804e-05,4.892e-05,4.876e-05,0.0001343,0.00012548,0.0001261,0.00012616,0.00012646,0.00012558,0.0001287,0.0001421,0.000128,0.0001323
454,7.32e-05,7.21e-05,7.424e-05,7.034e-05,7.446e-05,7.118e-05,7.488e-05,7.478e-05,7.278e-05,7.74e-05,6.07e-05,6.1e-05,5.722e-05,6.232e-05,5.986e-05,6.534e-05,6.078e-05,6.404e-05,6.294e-05,6.21e-05,5.082e-05,4.972e-05,4.944e-05,5.016e-05,5.026e-05,4.99e-05,5.08e-05,4.994e-05,5.098e-05,5.11e-05,0.00012716,0.00011988,0.00011692,0.0001192,0.00012286,0.00011592,0.00012332,0.00013604,0.00011972,0.00012564
456,7.18e-05,7.29e-05,7.394e-05,7.096e-05,7.502e-05,7.156e-05,7.572e-05,7.58e-05,7.52e-05,7.772e-05,6.452e-05,6.326e-05,5.984e-05,6.43e-05,6.194e-05,6.466e-05,6.29e-05,6.518e-05,6.302e-05,6.412e-05,5.198e-05,5.178e-05,5.188e-05,5.172e-05,5.214e-05,5.166e-05,5.27e-05,5.18e-05,5.334e-05,5.292e-05,0.00012484,0.00011686,0.0001156,0.00011772,0.00012368,0.00011294,0.00012118,0.00013456,0.00011906,0.00012454
458,7.442e-05,7.632e-05,7.834e-05,7.388e-05,7.92e-05,7.592e-05,7.81e-05,7.834e-05,7.972e-05,7.912e-05,6.516e-05,6.64e-05,6.288e-05,6.764e-05,6.618e-05,6.988e-05,6.65e-05,6.802e-05,6.764e-05,6.984e-05,5.608e-05,5.544e-05,5.608e-05,5.52e-05,5.584e-05,5.456e-05,5.58e-05,5.582e-05,5.716e-05,5.66e-05,0.00012786,0.00011768,0.00011528,0.0001198,0.00012454,0.00011488,0.00012154,0.0001356,0.00011896,0.00012794
460,7.894e-05,7.888e-05,8.084e-05,7.822e-05,8.142e-05,8.008e-05,8.214e-05,8.192e-05,8.142e-05,8.15e-05,6.99e-05,7.082e-05,6.728e-05,7.086e-05,7.026e-05,7.436e-05,7.18e-05,7.194e-05,7.214e-05,7.284e-05,6.036e-05,5.92e-05,6.034e-05,5.956e-05,6.03e-05,5.882e-05,6.028e-05,6.004e-05,6.088e-05,6e-05,0.00012632,0.0001209,0.0001202,0.00012236,0.0001244,0.0001178,0.00012368,0.00013556,0.00012338,0.00013076
462,8.382e-05,8.318e-05,8.554e-05,8.44e-05,8.67e-05,8.422e-05,8.452e-05,8.508e-05,8.624e-05,8.78e-05,7.404e-05,7.454e-05,7.098e-05,7.502e-05,7.352e-05,7.824e-05,7.552e-05,7.654e-05,7.644e-05,7.716e-05,6.44e-05,6.344e-05,6.438e-05,6.38e-05,6.468e-05,6.3e-05,6.446e-05,6.424e-05,6.512e-05,6.424e-05,0.0001276,0.00012474,0.00012376,0.00012384,0.00012664,0.0001224,0.00012746,0.0001379,0.000126,0.00013332
464,8.684e-05,8.608e-05,8.978e-05,8.74e-05,9.334e-05,8.726e-05,8.768e-05,9.05e-05,9.28e-05,9.09e-05,7.754e-05,7.838e-05,7.696e-05,8.012e-05,7.85e-05,8.33e-05,7.944e-05,8.016e-05,8.12e-05,8.206e-05,6.862e-05,6.84e-05,6.79e-05,6.8e-05,6.88e-05,6.764e-05,6.86e-05,6.928e-05,6.98e-05,6.83e-05,0.00012944,0.00012892,0.00012738,0.00012718,0.00013424,0.00012622,0.00013316,0.0001383,0.00013058,0.00013578
466,9.246e-05,9.35e-05,9.332e-05,9.552e-05,9.982e-05,9.602e-05,9.362e-05,9.604e-05,9.62e-05,9.44e-05,8.418e-05,8.414e-05,8.156e-05,8.424e-05,8.318e-05,8.81e-05,8.624e-05,8.558e-05,8.784e-05,8.762e-05,7.42e-05,7.374e-05,7.384e-05,7.346e-05,7.47e-05,7.29e-05,7.404e-05,7.488e-05,7.51e-05,7.374e-05,0.00013708,0.00013092,0.00013044,0.0001329,0.00013934,0.000133,0.00013702,0.00014284,0.00013664,0.00014366
468,0.00010074,0.00010122,0.00010182,0.00010344,0.00010794,0.00010202,9.954e-05,0.00010296,0.0001039,0.00010208,9.208e-05,9.042e-05,8.862e-05,9.118e-05,8.99e-05,9.678e-05,9.346e-05,9.176e-05,9.56e-05,9.546e-05,8.172e-05,8.206e-05,8.184e-05,8.19e-05,8.27e-05,8.024e-05,8.198e-05,8.262e-05,8.26e-05,8.152e-05,0.00014422,0.00014188,0.00013824,0.00014108,0.00014444,0.00014052,0.0001444,0.00015062,0.00014842,0.00015164
470,0.0001029,0.0001017,0.00010238,0.0001036,0.00010712,0.00010728,0.00010184,0.00010466,0.00010564,0.00010342,9.304e-05,9.212e-05,8.964e-05,9.512e-05,9.418e-05,9.746e-05,9.694e-05,9.512e-05,9.836e-05,9.78e-05,8.48e-05,8.494e-05,8.53e-05,8.574e-05,8.526e-05,8.372e-05,8.52e-05,8.546e-05,8.594e-05,8.404e-05,0.0001446,0.00014542,0.00013872,0.00014182,0.00014956,0.00014164,0.0001464,0.00014716,0.0001472,0.0001539
472,0.00010064,0.0001006,0.00010256,0.00010394,0.00010788,0.0001062,0.00010022,0.00010184,0.0001048,0.00010358,9.322e-05,9.196e-05,8.966e-05,9.3e-05,9.248e-05,9.776e-05,9.588e-05,9.594e-05,9.866e-05,9.598e-05,8.622e-05,8.636e-05,8.626e-05,8.67e-05,8.746e-05,8.506e-05,8.708e-05,8.756e-05,8.724e-05,8.562e-05,0.00014156,0.00014144,0.0001355,0.0001414,0.0001469,0.0001398,0.00014588,0.00014364,0.00014702,0.00014824
474,9.916e-05,9.994e-05,0.0001007,0.00010574,0.0001082,0.00010368,9.936e-05,0.00010086,0.00010328,0.00010186,9.252e-05,9.064e-05,8.934e-05,9.27e-05,9.154e-05,9.708e-05,9.556e-05,9.432e-05,9.694e-05,9.444e-05,8.734e-05,8.756e-05,8.732e-05,8.778e-05,8.794e-05,8.64e-05,8.762e-05,8.806e-05,8.82e-05,8.736e-05,0.00013886,0.00014188,0.00013316,0.00013924,0.00014758,0.00013846,0.00014078,0.00014126,0.00014092,0.00014718
476,9.728e-05,9.68e-05,9.664e-05,0.00010032,0.0001046,0.00010108,9.64e-05,9.69e-05,9.938e-05,9.688e-05,8.94e-05,8.726e-05,8.584e-05,8.964e-05,8.862e-05,9.334e-05,9.234e-05,9.042e-05,9.344e-05,9.136e-05,8.55e-05,8.602e-05,8.61e-05,8.604e-05,8.636e-05,8.492e-05,8.636e-05,8.638e-05,8.692e-05,8.604e-05,0.00013136,0.0001336,0.0001277,0.00013174,0.0001382,0.00013464,0.00013174,0.0001318,0.00013516,0.00014068
478,9.492e-05,9.532e-05,9.516e-05,9.856e-05,0.00010374,0.00010188,9.394e-05,9.43e-05,9.73e-05,9.654e-05,8.574e-05,8.756e-05,8.564e-05,8.716e-05,8.546e-05,9.154e-05,9.014e-05,8.844e-05,9.204e-05,8.958e-05,8.634e-05,8.636e-05,8.664e-05,8.634e-05,8.724e-05,8.626e-05,8.742e-05,8.794e-05,8.792e-05,8.574e-05,0.00012598,0.00012696,0.0001239,0.00012574,0.00013464,0.00013226,0.00012926,0.000127,0.00013192,0.00013784
480,0.00010026,0.00010004,9.852e-05,0.00010304,0.00010672,0.00010588,9.668e-05,9.716e-05,0.00010192,0.00010004,8.966e-05,8.866e-05,8.678e-05,9.062e-05,8.852e-05,9.508e-05,9.646e-05,9.324e-05,9.666e-05,9.462e-05,9.214e-05,9.156e-05,9.236e-05,9.224e-05,9.284e-05,9.192e-05,9.332e-05,9.33e-05,9.37e-05,9.258e-05,0.00012956,0.0001302,0.00012654,0.00012838,0.00013528,0.0001338,0.00013334,0.0001307,0.00013228,0.00013882
482,0.00010452,0.00010442,0.00010264,0.00010866,0.0001091,0.00010708,0.00010306,0.00010366,0.00010582,0.00010344,9.578e-05,9.478e-05,9.466e-05,9.652e-05,9.418e-05,0.00010288,0.0001003,9.972e-05,0.0001035,0.00010234,0.00010042,0.00010124,0.00010156,0.00010068,0.00010168,0.00010146,0.00010252,0.000102,0.000103,0.000102,0.00013458,0.0001375,0.00012974,0.00013438,0.00013966,0.0001373,0.00014094,0.0001312,0.0001383,0.00014606
484,0.00010756,0.00010684,0.00010674,0.0001089,0.00011112,0.00011128,0.0001043,0.00010378,0.00010542,0.00010526,0.00010022,9.954e-05,9.998e-05,0.00010084,9.976e-05,0.00010822,0.0001056,0.00010602,0.00010818,0.00010658,0.0001055,0.00010654,0.00010702,0.00010656,0.00010694,0.0001068,0.00010796,0.00010778,0.00010844,0.0001079,0.00013462,0.0001378,0.00013046,0.00013644,0.00014226,0.00013992,0.00013978,0.00013246,0.00014014,0.00014112
486,0.00010462,0.0001068,0.00010456,0.00010726,0.00010884,0.0001082,0.00010246,0.00010234,0.00010524,0.00010382,0.00010824,0.00010918,0.00010866,0.00011142,0.0001096,0.00011522,0.00011602,0.0001151,0.00011772,0.00011526,0.00011066,0.00011124,0.00011204,0.00011122,0.00011198,0.00011168,0.0001125,0.0001118,0.0001132,0.0001127,0.0001334,0.00013718,0.00012956,0.0001351,0.00014232,0.00014018,0.00013712,0.00013232,0.0001364,0.00014076
488,0.00010536,0.00010526,0.00010548,0.00010796,0.00010846,0.00010936,0.00010262,0.00010344,0.00010504,0.00010226,0.00014684,0.00014858,0.00014862,0.00015004,0.00014836,0.00014958,0.00014912,0.00014928,0.00015282,0.00014874,0.00012764,0.00012852,0.00012958,0.0001284,0.00012906,0.00012698,0.00012724,0.00012746,0.0001285,0.00012766,0.0001379,0.00013974,0.00012912,0.00013814,0.00014148,0.00014224,0.00014004,0.00013308,0.00014072,0.00014414
490,0.00010946,0.0001113,0.00011202,0.00011292,0.00011074,0.0001159,0.00010818,0.0001082,0.00010868,0.00010598,0.000293,0.0002958,0.0002948,0.0002932,0.0002934,0.000277,0.0002748,0.0002738,0.0002798,0.000277,0.00019356,0.00019424,0.0001954,0.00019382,0.00019534,0.0001844,0.0001844,0.00018512,0.00018562,0.0001855,0.00014854,0.00015362,0.00014442,0.00015254,0.00015356,0.00015726,0.00015328,0.00014316,0.00015324,0.00015598
492,0.00011688,0.00012064,0.00011858,0.00012056,0.00011966,0.000122,0.0001157,0.00011362,0.00011672,0.00011448,0.0006768,0.0006788,0.0006786,0.0006752,0.0006782,0.0006224,0.0006202,0.0006196,0.0006252,0.0006236,0.000374,0.0003752,0.0003764,0.000375,0.0003766,0.0003456,0.0003462,0.000346,0.0003478,0.0003492,0.0001794,0.0001867,0.00017894,0.00018198,0.00018568,0.000191,0.00018404,0.00017604,0.0001859,0.000185
494,0.00012044,0.00012324,0.000123,0.00012632,0.00012448,0.00012924,0.00012212,0.00012086,0.00012054,0.00012006,0.0014024,0.0014026,0.0014048,0.0014028,0.0014036,0.0013072,0.0013006,0.0012994,0.0013078,0.0013084,0.0007248,0.0007258,0.000727,0.000726,0.0007266,0.0006736,0.0006734,0.0006742,0.0006768,0.0006788,0.0002296,0.0002366,0.0002302,0.0002328,0.0002334,0.0002312,0.000231,0.000226,0.0002294,0.0002294
496,0.00012692,0.00012888,0.00012764,0.00012996,0.00012862,0.0001317,0.00012722,0.00012484,0.00012436,0.00012586,0.002218,0.00222,0.00222,0.002218,0.00222,0.0021,0.002092,0.002092,0.0021,0.002102,0.001103,0.0011044,0.001106,0.0011046,0.0011064,0.0010432,0.0010424,0.0010438,0.0010462,0.0010486,0.000281,0.000286,0.0002784,0.0002844,0.000283,0.0002854,0.0002824,0.0002726,0.0002802,0.0002814
498,0.00013986,0.00014192,0.00014236,0.00014294,0.00014168,0.00014372,0.00013786,0.00013826,0.00013978,0.0001382,0.003024,0.003026,0.003024,0.003026,0.003024,0.002896,0.002888,0.002888,0.002894,0.002898,0.0014176,0.0014188,0.0014216,0.0014194,0.001421,0.0013618,0.0013618,0.001363,0.001365,0.0013672,0.0003234,0.00033,0.0003196,0.0003258,0.0003268,0.0003306,0.0003244,0.0003186,0.0003246,0.000327
500,0.00016912,0.00017116,0.00017112,0.000173,0.00017148,0.00017128,0.00016806,0.00016608,0.00016674,0.00016508,0.003774,0.003778,0.003778,0.003776,0.003776,0.003638,0.003632,0.003634,0.00364,0.003642,0.0016296,0.0016296,0.0016334,0.0016308,0.0016326,0.0015826,0.001583,0.0015834,0.001586,0.0015878,0.0003528,0.00036,0.0003496,0.0003548,0.0003564,0.0003568,0.0003536,0.0003494,0.000357,0.0003548
502,0.00021,0.0002116,0.0002108,0.0002116,0.0002104,0.0002096,0.0002086,0.0002038,0.0002054,0.000207,0.004428,0.00443,0.004432,0.00443,0.004432,0.004286,0.004282,0.004286,0.00429,0.004294,0.0017508,0.0017516,0.001755,0.0017522,0.001754,0.001711,0.0017116,0.0017118,0.001715,0.0017166,0.0003692,0.000374,0.0003678,0.0003738,0.0003724,0.000376,0.0003696,0.0003664,0.0003718,0.0003712
504,0.0002438,0.0002468,0.0002452,0.0002458,0.0002434,0.0002448,0.0002448,0.0002406,0.0002396,0.0002422,0.004924,0.004926,0.004926,0.004926,0.004926,0.004786,0.004786,0.00479,0.004792,0.004796,0.001813,0.0018132,0.0018172,0.0018142,0.0018164,0.0017766,0.0017786,0.0017784,0.0017814,0.0017824,0.000378,0.0003834,0.0003776,0.0003822,0.0003792,0.0003844,0.000377,0.0003778,0.0003782,0.0003776
506,0.0002654,0.0002668,0.000266,0.0002664,0.0002622,0.000267,0.0002658,0.0002622,0.0002602,0.000261,0.005156,0.005158,0.005158,0.005158,0.005158,0.005042,0.005048,0.005048,0.00505,0.005052,0.0018092,0.0018092,0.0018126,0.0018096,0.0018126,0.0017842,0.0017852,0.001786,0.0017872,0.0017874,0.000373,0.000379,0.0003738,0.0003768,0.0003744,0.00038,0.0003772,0.0003728,0.0003752,0.000379
508,0.0002726,0.000275,0.000277,0.000275,0.0002716,0.000276,0.0002734,0.00027,0.0002694,0.0002698,0.00499,0.004992,0.004992,0.004994,0.00499,0.004932,0.004936,0.004936,0.004938,0.004936,0.0016712,0.0016706,0.0016746,0.0016706,0.0016738,0.0016706,0.0016726,0.0016722,0.0016742,0.0016728,0.0003498,0.0003524,0.0003466,0.0003508,0.0003512,0.0003606,0.000357,0.0003544,0.0003568,0.0003536
510,0.0002768,0.0002774,0.0002784,0.0002782,0.0002734,0.0002776,0.0002758,0.0002736,0.0002708,0.000273,0.004406,0.004406,0.004408,0.004408,0.004406,0.00441,0.004418,0.00442,0.004418,0.004414,0.0013472,0.0013468,0.0013494,0.0013462,0.001349,0.001379,0.0013812,0.0013806,0.0013804,0.0013794,0.0003016,0.0003052,0.0002974,0.0003026,0.000302,0.0003152,0.0003126,0.0003088,0.0003098,0.0003102
512,0.0002734,0.000273,0.0002756,0.0002752,0.0002692,0.0002762,0.0002742,0.0002726,0.0002704,0.0002728,0.00354,0.00354,0.003542,0.003542,0.003538,0.003592,0.003602,0.003604,0.0036,0.003596,0.0008992,0.0008988,0.0009002,0.000898,0.0009,0.0009484,0.00095,0.0009492,0.0009484,0.000947,0.0002492,0.0002494,0.0002464,0.0002496,0.0002458,0.0002614,0.0002606,0.0002566,0.000256,0.000259
514,0.000256,0.0002562,0.0002578,0.000257,0.0002524,0.0002638,0.0002622,0.0002592,0.0002572,0.0002598,0.00263,0.00263,0.002632,0.002632,0.00263,0.0027,0.00271,0.002712,0.002706,0.002704,0.000506,0.0005062,0.0005074,0.0005054,0.0005068,0.0005464,0.0005472,0.0005468,0.0005462,0.000546,0.0002118,0.000212,0.0002082,0.0002138,0.0002104,0.0002238,0.0002226,0.0002184,0.0002184,0.00022
516,0.0002246,0.0002266,0.0002266,0.000226,0.0002218,0.000233,0.0002346,0.0002312,0.0002284,0.000229,0.0018314,0.0018314,0.0018324,0.0018312,0.001829,0.001898,0.0019064,0.0019096,0.0019056,0.001902,0.0002932,0.0002936,0.0002946,0.0002934,0.0002942,0.0003144,0.0003142,0.0003146,0.0003148,0.0003152,0.0001978,0.00019502,0.0001956,0.00019796,0.00019576,0.000204,0.0002044,0.0002016,0.0002018,0.0002026
518,0.00018864,0.00019054,0.00019128,0.00018918,0.00018734,0.00019754,0.00019826,0.00019762,0.00019352,0.00019498,0.0011394,0.00114,0.00114,0.0011392,0.001137,0.0011956,0.0012018,0.0012046,0.0012006,0.0011984,0.0002218,0.0002222,0.0002234,0.0002222,0.0002226,0.0002312,0.000231,0.0002316,0.0002314,0.0002322,0.00019516,0.00019308,0.00019102,0.00019676,0.00019244,0.000201,0.0002014,0.0002008,0.00019534,0.00019686
520,0.00016856,0.00016866,0.00016992,0.00016934,0.0001681,0.00017586,0.0001772,0.00017508,0.00017254,0.00017298,0.0006784,0.0006766,0.0006782,0.000675,0.0006772,0.0007154,0.0007208,0.0007216,0.0007182,0.000718,0.0002062,0.0002072,0.0002074,0.000207,0.000207,0.0002126,0.0002124,0.0002134,0.0002126,0.0002132,0.00019498,0.00019478,0.00019438,0.00019712,0.00019292,0.0001992,0.000198,0.0002012,0.00019576,0.0002004
522,0.00016358,0.00016388,0.00016338,0.00016404,0.0001617,0.00016954,0.00017022,0.0001693,0.0001663,0.00016808,0.0004644,0.0004624,0.0004642,0.000461,0.0004626,0.0004822,0.0004862,0.0004876,0.0004852,0.0004864,0.0001997,0.0002004,0.00019998,0.0002,0.0002004,0.000205,0.000205,0.0002052,0.0002054,0.000206,0.00019534,0.00019426,0.00019326,0.0001967,0.00019378,0.00019816,0.0001998,0.0002008,0.00019674,0.0002004
524,0.00016474,0.0001658,0.0001642,0.00016462,0.0001619,0.00016634,0.00016856,0.00017008,0.00016702,0.00016816,0.0003872,0.0003852,0.0003844,0.0003826,0.0003844,0.0003948,0.000397,0.000397,0.0003974,0.0003992,0.00019322,0.00019352,0.0001932,0.00019298,0.00019396,0.00019818,0.00019766,0.0001984,0.00019818,0.00019854,0.00019644,0.00019256,0.00019162,0.00019506,0.0001908,0.00019994,0.00019886,0.00019858,0.00019486,0.00019842
526,0.00016742,0.00016754,0.00016714,0.00016674,0.00016516,0.0001702,0.00017204,0.00017182,0.00016942,0.00017136,0.0003546,0.0003542,0.0003522,0.000351,0.000352,0.0003604,0.000363,0.000361,0.0003614,0.0003648,0.00018742,0.0001874,0.0001873,0.00018746,0.00018814,0.00019184,0.0001913,0.00019222,0.00019212,0.00019262,0.00019418,0.00019044,0.00019042,0.00019392,0.00018844,0.00019818,0.00019776,0.0001977,0.00019282,0.00019874
528,0.00016954,0.00016934,0.00016816,0.00017,0.00016612,0.00017424,0.0001758,0.00017432,0.00017154,0.00017566,0.000331,0.0003308,0.0003302,0.0003288,0.0003296,0.0003372,0.0003386,0.0003376,0.000339,0.0003408,0.00018212,0.00018172,0.000182,0.0001821,0.00018224,0.00018638,0.00018566,0.0001869,0.00018616,0.00018702,0.0001899,0.00018786,0.00018942,0.00019228,0.000185,0.00019218,0.00019468,0.00019088,0.00019116,0.00019296
530,0.00017104,0.00017106,0.00017242,0.0001723,0.00016948,0.00017422,0.00017622,0.00017764,0.00017588,0.00017682,0.000307,0.0003054,0.0003054,0.0003044,0.0003072,0.000314,0.0003144,0.000314,0.0003154,0.0003172,0.0001758,0.00017658,0.00017612,0.00017608,0.00017628,0.00018018,0.00017986,0.00018102,0.00018016,0.00018192,0.0001811,0.0001785,0.00018028,0.00018278,0.0001794,0.00018444,0.00018978,0.000186,0.00018556,0.00018844
532,0.00017388,0.00017396,0.00017348,0.00017244,0.00017274,0.00017822,0.00017924,0.00018058,0.00017744,0.00018018,0.0002884,0.0002866,0.0002864,0.000286,0.000289,0.000295,0.000297,0.0002962,0.0002966,0.0002988,0.0001732,0.00017286,0.00017254,0.00017348,0.00017302,0.00017692,0.0001769,0.0001777,0.0001775,0.00017822,0.0001725,0.00017096,0.00017378,0.0001739,0.00017234,0.00017878,0.0001814,0.00018006,0.00017832,0.00018298
534,0.00017496,0.00017628,0.00017468,0.0001745,0.00017504,0.00018164,0.0001828,0.00018198,0.00017982,0.00018304,0.0002734,0.0002722,0.0002726,0.0002714,0.0002742,0.0002814,0.000282,0.0002818,0.0002826,0.000284,0.00017186,0.00017168,0.00017176,0.00017214,0.00017172,0.00017622,0.00017576,0.00017652,0.00017588,0.00017702,0.00016948,0.00016584,0.00016776,0.00016786,0.00016616,0.00017362,0.00017684,0.0001738,0.00017578,0.00017666
536,0.0001777,0.00017724,0.00017696,0.00017776,0.0001762,0.0001834,0.00018384,0.00018476,0.00018292,0.00018544,0.0002618,0.000261,0.0002594,0.0002598,0.0002616,0.0002694,0.0002694,0.0002692,0.00027,0.0002718,0.00017166,0.00017122,0.00017108,0.00017128,0.00017098,0.00017506,0.00017524,0.00017596,0.0001751,0.00017606,0.00016492,0.0001607,0.0001636,0.00016524,0.0001627,0.00017122,0.00017086,0.00017108,0.000172,0.00017326
538,0.00018142,0.00018026,0.00018054,0.00017818,0.00018016,0.00018434,0.0001862,0.00018708,0.00018562,0.00018796,0.000254,0.000253,0.0002516,0.0002522,0.000254,0.0002596,0.0002604,0.0002598,0.0002612,0.000263,0.000172,0.00017176,0.00017136,0.00017192,0.00017158,0.000175,0.00017466,0.00017562,0.00017518,0.000176,0.00016336,0.00015968,0.00016168,0.00016296,0.00016128,0.0001675,0.00016932,0.00017014,0.00017138,0.0001741
540,0.00018376,0.000183,0.00018164,0.0001813,0.00018204,0.0001885,0.00018968,0.00019052,0.00018964,0.00019124,0.000249,0.0002466,0.0002456,0.000247,0.0002492,0.000253,0.0002554,0.0002538,0.000254,0.000257,0.000173,0.00017214,0.00017164,0.00017254,0.00017224,0.00017526,0.00017536,0.00017562,0.00017568,0.00017632,0.0001641,0.00016206,0.00016156,0.0001669,0.00016134,0.00016752,0.00017164,0.00017106,0.00017194,0.000173
542,0.0001841,0.00018398,0.000183,0.00018158,0.00018462,0.00018972,0.00019084,0.00019316,0.00019244,0.00019332,0.0002442,0.0002422,0.0002426,0.0002436,0.0002446,0.0002486,0.0002496,0.0002492,0.0002498,0.0002514,0.00017446,0.00017354,0.00017334,0.00017414,0.00017342,0.00017622,0.00017596,0.00017644,0.00017648,0.0001775,0.00016842,0.00016366,0.0001685,0.0001703,0.0001645,0.00017282,0.00017626,0.00017872,0.0001784,0.00018054
544,0.0001864,0.00018442,0.0001838,0.0001835,0.00018674,0.00019118,0.00019258,0.00019336,0.0001936,0.00019438,0.0002424,0.0002412,0.0002406,0.0002422,0.0002428,0.0002458,0.0002476,0.0002468,0.0002476,0.0002492,0.00017582,0.00017562,0.00017492,0.00017616,0.00017536,0.00017798,0.00017786,0.0001787,0.00017862,0.00017924,0.0001783,0.00017536,0.00017876,0.00017848,0.00017822,0.00018334,0.00018724,0.00018882,0.00018878,0.00019396
546,0.00018426,0.0001823,0.0001825,0.00018244,0.00018232,0.00019014,0.00019144,0.00019196,0.00019388,0.00019234,0.0002408,0.0002392,0.0002394,0.0002414,0.0002416,0.0002448,0.0002462,0.0002446,0.0002458,0.0002476,0.000177,0.00017716,0.00017598,0.00017728,0.00017664,0.00017896,0.0001794,0.00018002,0.00017944,0.0001806,0.0001915,0.00019016,0.00019318,0.00019174,0.00019042,0.00019792,0.0002016,0.0002024,0.0002044,0.0002078
548,0.00018078,0.0001783,0.0001789,0.00017706,0.00017926,0.00018574,0.00018744,0.00018866,0.00018978,0.0001899,0.000239,0.000238,0.0002376,0.0002388,0.0002406,0.0002434,0.000245,0.0002422,0.0002452,0.0002452,0.0001783,0.00017752,0.0001768,0.00017798,0.00017778,0.00017964,0.00018034,0.00018068,0.00018048,0.0001815,0.000208,0.0002072,0.0002066,0.00021,0.0002048,0.0002188,0.00022,0.0002222,0.0002252,0.0002274
550,0.0001748,0.00017364,0.00017312,0.00017314,0.00017406,0.00018124,0.00018472,0.00018502,0.00018466,0.0001861,0.0002382,0.0002356,0.0002358,0.0002384,0.0002384,0.0002434,0.0002438,0.0002426,0.000243,0.0002438,0.00017914,0.0001786,0.00017774,0.00017906,0.00017838,0.00018088,0.00018128,0.00018176,0.00018122,0.00018246,0.0002296,0.0002266,0.0002268,0.0002292,0.0002266,0.0002384,0.0002432,0.0002442,0.0002474,0.0002514
552,0.00016908,0.0001693,0.00016876,0.0001671,0.00016974,0.00018354,0.00018074,0.00018268,0.0001825,0.00018264,0.0002378,0.0002358,0.0002354,0.0002374,0.000237,0.0002422,0.0002426,0.0002412,0.0002424,0.0002438,0.00017964,0.00017922,0.00017792,0.00017914,0.0001788,0.00018154,0.00018254,0.0001824,0.00018218,0.00018342,0.0002576,0.000256,0.0002554,0.0002578,0.0002546,0.0002698,0.000274,0.0002744,0.0002784,0.0002796
554,0.00016744,0.00016444,0.00016478,0.00016354,0.00016582,0.00017794,0.00017704,0.000179,0.00018054,0.00017988,0.0002358,0.0002352,0.000235,0.0002368,0.0002376,0.0002406,0.0002432,0.0002406,0.0002414,0.0002438,0.00018024,0.00017934,0.00017882,0.00017972,0.00017932,0.00018186,0.00018288,0.0001828,0.00018302,0.00018372,0.0003284,0.0003268,0.0003276,0.00033,0.000324,0.0003356,0.0003386,0.0003416,0.0003432,0.0003468
556,0.00016528,0.00016314,0.00016306,0.0001623,0.00016448,0.00017618,0.0001769,0.00017856,0.00017902,0.00017848,0.0002342,0.0002346,0.0002354,0.0002368,0.000237,0.0002408,0.0002422,0.000241,0.0002424,0.0002446,0.00018054,0.00018026,0.0001791,0.00017982,0.00017982,0.00018266,0.00018384,0.00018352,0.00018338,0.00018408,0.0005154,0.0005158,0.0005164,0.000517,0.0005152,0.0005098,0.0005086,0.0005132,0.0005154,0.0005204
558,0.00016714,0.00016374,0.00016468,0.0001627,0.00016526,0.00017784,0.00017904,0.00017992,0.00018214,0.00018104,0.0002346,0.000234,0.0002348,0.0002362,0.000236,0.0002422,0.0002434,0.0002414,0.000243,0.0002434,0.0001809,0.00018052,0.00017942,0.0001802,0.00017984,0.00018254,0.00018376,0.0001841,0.00018364,0.00018392,0.0009216,0.000921,0.0009252,0.0009238,0.0009236,0.0008854,0.000882,0.0008914,0.000895,0.0008984
560,0.00017196,0.00016808,0.00016808,0.00016748,0.00016922,0.0001835,0.00018412,0.00018516,0.00018782,0.000187,0.0002342,0.0002346,0.0002354,0.0002366,0.0002364,0.0002416,0.0002434,0.0002408,0.0002426,0.000244,0.00018118,0.00018072,0.0001799,0.00018066,0.00018036,0.00018242,0.0001836,0.0001838,0.00018348,0.00018378,0.0015656,0.0015648,0.0015722,0.0015658,0.0015758,0.0014952,0.001488,0.0015,0.0015058,0.0015114
562,0.00018176,0.00017856,0.00017844,0.00017852,0.00017996,0.00019518,0.0001947,0.000196,0.00019946,0.0001981,0.0002346,0.0002332,0.0002348,0.0002376,0.0002366,0.0002416,0.0002412,0.0002414,0.0002422,0.000243,0.00018156,0.00018126,0.00017962,0.00018108,0.00018102,0.00018282,0.00018384,0.00018338,0.0001835,0.00018374,0.002446,0.002446,0.002462,0.002448,0.002468,0.002334,0.002324,0.002346,0.002348,0.002356
564,0.0002092,0.0002048,0.0002074,0.0002066,0.0002086,0.0002228,0.0002206,0.0002208,0.0002244,0.0002232,0.0002328,0.0002334,0.000234,0.0002358,0.0002352,0.000241,0.0002396,0.00024,0.0002406,0.000241,0.00018082,0.00018076,0.0001792,0.00018064,0.00018006,0.000181,0.00018284,0.0001824,0.00018204,0.0001828,0.003726,0.003726,0.003772,0.003726,0.00378,0.003572,0.003546,0.00358,0.003592,0.0036
566,0.000294,0.00029,0.0002904,0.0002902,0.0002904,0.0002976,0.0002922,0.0002934,0.0002978,0.0002958,0.0002314,0.000232,0.000233,0.0002338,0.0002338,0.0002394,0.0002386,0.0002384,0.0002406,0.0002404,0.00018018,0.00017952,0.00017938,0.00017978,0.0001798,0.0001804,0.00018176,0.0001817,0.00018204,0.00018224,0.005128,0.005128,0.005222,0.005128,0.005236,0.004964,0.00491,0.00498,0.004986,0.004996
568,0.0005374,0.000534,0.0005328,0.0005334,0.0005338,0.0005116,0.0005084,0.0005084,0.0005146,0.0005132,0.00023,0.000231,0.0002308,0.0002328,0.0002314,0.0002382,0.0002376,0.0002382,0.000239,0.0002404,0.00017962,0.00017904,0.0001788,0.00017884,0.0001796,0.00017972,0.00018138,0.00018132,0.00018176,0.0001817,0.006566,0.006564,0.006726,0.006562,0.006746,0.006422,0.006332,0.006448,0.006454,0.006456
570,0.0010376,0.001031,0.0010294,0.0010316,0.0010324,0.0009736,0.0009634,0.0009652,0.0009714,0.0009716,0.0002268,0.0002276,0.0002278,0.000228,0.0002276,0.0002366,0.0002354,0.0002364,0.0002372,0.0002368,0.00017788,0.00017728,0.00017728,0.00017756,0.00017782,0.00017808,0.00017998,0.00017968,0.00018,0.00018062,0.00797,0.007966,0.008212,0.007966,0.008242,0.00788,0.007748,0.007916,0.007924,0.007916
572,0.0017896,0.001782,0.0017794,0.0017836,0.0017826,0.0016868,0.0016694,0.0016712,0.001676,0.0016808,0.0002232,0.0002244,0.0002254,0.0002252,0.0002258,0.0002346,0.0002342,0.0002342,0.0002354,0.0002348,0.0001761,0.00017526,0.00017586,0.00017498,0.00017582,0.00017692,0.00017846,0.00017862,0.00017858,0.00017958,0.009264,0.009258,0.009582,0.009258,0.00962,0.00925,0.00908,0.009292,0.009298,0.009282
574,0.002834,0.002826,0.002824,0.002828,0.002824,0.002704,0.00266,0.002662,0.00267,0.002676,0.0002236,0.0002258,0.000227,0.0002274,0.0002262,0.0002354,0.000235,0.0002358,0.0002362,0.000237,0.00017368,0.00017354,0.0001742,0.00017376,0.00017384,0.0001757,0.0001772,0.00017768,0.00017716,0.00017804,0.010408,0.010402,0.010788,0.010402,0.010828,0.010474,0.010276,0.010518,0.010518,0.010498
576,0.004154,0.004142,0.004142,0.004144,0.004144,0.004022,0.00393,0.003934,0.00394,0.003946,0.0002328,0.0002338,0.000233,0.000235,0.000234,0.000244,0.0002428,0.0002438,0.0002442,0.000244,0.000173,0.00017268,0.00017284,0.00017262,0.00017332,0.00017554,0.00017646,0.0001766,0.0001765,0.00017772,0.011344,0.011336,0.011744,0.011336,0.01178,0.011454,0.011258,0.011498,0.011496,0.01148
578,0.005482,0.00547,0.005468,0.00547,0.00547,0.005384,0.005218,0.005226,0.005228,0.005238,0.00025,0.000253,0.0002532,0.000253,0.0002522,0.0002618,0.0002592,0.0002614,0.0002618,0.0002602,0.0001763,0.00017606,0.00017556,0.00017604,0.0001767,0.00017868,0.0001795,0.00018014,0.00018006,0.00018114,0.012004,0.011996,0.012378,0.011994,0.01241,0.01211,0.011936,0.012146,0.012144,0.012138
580,0.00681,0.006792,0.006794,0.006794,0.006796,0.006772,0.006508,0.006522,0.006524,0.006538,0.0002826,0.0002856,0.0002846,0.0002854,0.0002842,0.0002916,0.0002898,0.000292,0.000293,0.0002908,0.00018644,0.0001865,0.00018692,0.00018636,0.00018732,0.00018832,0.00018968,0.00019024,0.00018988,0.00019116,0.01247,0.01246,0.012744,0.012456,0.01277,0.012502,0.012382,0.01253,0.012528,0.01253
582,0.00806,0.00804,0.008042,0.008038,0.008044,0.008096,0.007728,0.007748,0.007748,0.007766,0.0003412,0.0003458,0.0003444,0.0003426,0.0003432,0.0003462,0.0003456,0.0003468,0.0003476,0.0003464,0.0002078,0.000208,0.000209,0.0002078,0.0002088,0.0002082,0.0002096,0.0002104,0.0002102,0.000211,0.012748,0.012736,0.012874,0.01273,0.012896,0.012646,0.012598,0.012668,0.012666,0.01268
584,0.009138,0.009118,0.009122,0.009114,0.009124,0.009246,0.008796,0.008824,0.008818,0.008834,0.000459,0.0004644,0.0004628,0.0004606,0.000461,0.000454,0.0004518,0.0004528,0.0004546,0.0004546,0.000249,0.000249,0.00025,0.000249,0.00025,0.0002452,0.0002464,0.0002476,0.000248,0.0002488,0.012868,0.012858,0.012856,0.01285,0.012868,0.012622,0.012642,0.012646,0.01264,0.012664
586,0.009994,0.009972,0.009978,0.009968,0.009984,0.010092,0.009654,0.009684,0.009674,0.00969,0.0007516,0.0007556,0.0007532,0.0007512,0.0007548,0.000719,0.0007158,0.000718,0.0007216,0.0007222,0.0003366,0.0003374,0.000338,0.0003364,0.000338,0.0003248,0.000326,0.0003264,0.0003274,0.0003288,0.01282,0.012814,0.012702,0.012804,0.012708,0.012448,0.012516,0.012464,0.01246,0.012484
588,0.010436,0.010418,0.010424,0.010416,0.010428,0.010406,0.010112,0.01014,0.010126,0.010142,0.0011722,0.0011744,0.0011724,0.0011708,0.0011734,0.0011146,0.0011094,0.001111,0.001115,0.0011164,0.0004656,0.0004662,0.0004682,0.000466,0.0004678,0.0004424,0.0004438,0.0004442,0.0004452,0.000447,0.012686,0.01268,0.012506,0.01267,0.012512,0.01224,0.012324,0.012248,0.012242,0.01227
590,0.010532,0.01052,0.010522,0.01052,0.010528,0.010292,0.010242,0.010268,0.01025,0.010266,0.0016158,0.0016186,0.0016176,0.0016172,0.0016194,0.0015494,0.0015448,0.0015462,0.0015508,0.001552,0.0006374,0.0006382,0.0006402,0.0006382,0.0006396,0.0006026,0.000603,0.0006038,0.0006052,0.0006074,0.012446,0.012444,0.012236,0.012434,0.012242,0.011962,0.012056,0.01197,0.011962,0.011988
592,0.010136,0.010132,0.010132,0.010132,0.010138,0.009684,0.009922,0.00994,0.00992,0.00994,0.0019396,0.001943,0.001942,0.0019424,0.001942,0.001881,0.0018768,0.0018792,0.001882,0.0018848,0.000852,0.0008524,0.0008554,0.0008528,0.0008546,0.0008038,0.000804,0.0008052,0.0008072,0.0008092,0.012112,0.012108,0.011892,0.012098,0.0119,0.01163,0.011724,0.011634,0.01163,0.011654
594,0.009136,0.00914,0.009142,0.009144,0.009146,0.008604,0.009034,0.009044,0.009026,0.009046,0.002086,0.00209,0.002088,0.00209,0.00209,0.002044,0.002042,0.002044,0.002046,0.002048,0.0011104,0.0011106,0.0011148,0.0011108,0.0011136,0.001049,0.0010486,0.0010506,0.0010534,0.001056,0.01169,0.011686,0.011478,0.011676,0.01148,0.011242,0.011332,0.011246,0.01124,0.011272
596,0.007478,0.007486,0.00749,0.007492,0.007488,0.007072,0.007492,0.007498,0.00748,0.0075,0.002098,0.0021,0.002098,0.002102,0.002102,0.002072,0.002072,0.002074,0.002078,0.002076,0.0014304,0.0014306,0.001435,0.0014316,0.001434,0.001358,0.0013586,0.0013606,0.0013636,0.0013672,0.01113,0.011126,0.010942,0.01112,0.010946,0.01075,0.010836,0.01076,0.010756,0.010782
598,0.00583,0.005836,0.005838,0.005838,0.005838,0.005616,0.005902,0.005908,0.005896,0.005912,0.002044,0.002046,0.002046,0.002044,0.002046,0.00203,0.00203,0.002032,0.002036,0.002036,0.001744,0.0017444,0.0017494,0.0017452,0.001749,0.001665,0.0016658,0.0016684,0.0016718,0.0016752,0.010588,0.010584,0.01043,0.010578,0.010434,0.01028,0.01036,0.010292,0.010292,0.010312
600,0.00434,0.004346,0.004348,0.004348,0.00435,0.004276,0.004438,0.004448,0.004432,0.004442,0.0019762,0.0019804,0.0019792,0.0019776,0.001978,0.0019712,0.0019728,0.001973,0.0019762,0.001978,0.002062,0.002062,0.002068,0.002064,0.002066,0.0019786,0.0019796,0.0019826,0.0019864,0.0019894,0.010056,0.010052,0.009928,0.010048,0.00993,0.00981,0.009878,0.009826,0.009818,0.009838
602,0.003086,0.003092,0.003096,0.003094,0.003096,0.003106,0.003182,0.00319,0.003178,0.003184,0.001984,0.0019906,0.0019878,0.0019864,0.0019852,0.001972,0.0019722,0.001972,0.001977,0.0019782,0.002372,0.002372,0.002378,0.002374,0.002378,0.002288,0.00229,0.002292,0.002296,0.002298,0.00955,0.009546,0.009444,0.009542,0.009452,0.009356,0.009414,0.009372,0.00936,0.009374
604,0.002084,0.00209,0.00209,0.002088,0.00209,0.002138,0.00217,0.002176,0.002168,0.002172,0.002212,0.002216,0.002212,0.00221,0.002212,0.00217,0.002168,0.002166,0.002176,0.002176,0.002664,0.002662,0.002672,0.002666,0.00267,0.00258,0.00258,0.002584,0.002586,0.002588,0.009072,0.009066,0.008988,0.009062,0.008992,0.008914,0.008958,0.008918,0.008916,0.008924
606,0.0012548,0.0012612,0.001264,0.0012602,0.0012628,0.0013186,0.0013312,0.0013364,0.0013284,0.0013326,0.002828,0.00283,0.002826,0.002826,0.002828,0.002746,0.00274,0.002738,0.002746,0.00275,0.002946,0.002944,0.002952,0.002948,0.002952,0.002862,0.002862,0.002864,0.002868,0.002868,0.008544,0.008538,0.00848,0.008536,0.008482,0.00841,0.00845,0.00841,0.00841,0.00842
608,0.0007748,0.0007826,0.0007826,0.000783,0.0007822,0.0008256,0.000827,0.0008298,0.0008254,0.0008282,0.003754,0.003756,0.003752,0.003752,0.003754,0.003624,0.003612,0.003612,0.003624,0.00363,0.003138,0.003136,0.003144,0.00314,0.003144,0.00306,0.00306,0.003064,0.003066,0.003066,0.007978,0.007972,0.00792,0.00797,0.007926,0.007866,0.007902,0.00787,0.007868,0.007878
610,0.0005742,0.0005812,0.0005782,0.0005808,0.0005776,0.0006094,0.0006076,0.000609,0.000606,0.0006092,0.004844,0.004848,0.004842,0.004842,0.004848,0.004668,0.004658,0.004656,0.004668,0.004678,0.003212,0.003208,0.003216,0.003212,0.003216,0.003142,0.003144,0.003146,0.003148,0.00315,0.007278,0.007274,0.007218,0.007272,0.00722,0.007182,0.007222,0.00719,0.007188,0.007196
612,0.0005,0.0005052,0.0005016,0.0005034,0.0005026,0.0005256,0.0005196,0.0005226,0.0005216,0.0005252,0.00601,0.006012,0.006006,0.006006,0.006012,0.005792,0.005784,0.00578,0.005792,0.005804,0.003144,0.003142,0.003148,0.003144,0.003148,0.003088,0.003092,0.003092,0.003096,0.003096,0.006416,0.006416,0.00636,0.006412,0.006362,0.006344,0.006388,0.006354,0.006354,0.006358
614,0.0004678,0.0004736,0.0004726,0.000474,0.000471,0.0004922,0.0004838,0.0004864,0.0004862,0.0004908,0.007154,0.007156,0.00715,0.007152,0.007156,0.006898,0.006894,0.006892,0.006902,0.006918,0.002926,0.002926,0.00293,0.002926,0.00293,0.002892,0.002896,0.002898,0.0029,0.0029,0.005482,0.005478,0.005434,0.005476,0.00544,0.005436,0.005474,0.005448,0.005446,0.00545
616,0.0004572,0.000462,0.000463,0.000463,0.0004626,0.0004752,0.0004714,0.0004732,0.0004748,0.0004766,0.008274,0.008276,0.008272,0.008276,0.00828,0.008,0.008,0.007996,0.008006,0.008022,0.002526,0.002528,0.00253,0.002526,0.00253,0.00252,0.002526,0.002526,0.00253,0.002528,0.004444,0.004436,0.004412,0.004436,0.004414,0.004436,0.00446,0.004448,0.004442,0.004446
618,0.0004644,0.0004692,0.0004688,0.000469,0.0004688,0.000474,0.0004742,0.0004746,0.0004744,0.0004812,0.009144,0.009146,0.00914,0.009148,0.009148,0.008876,0.008878,0.008876,0.008878,0.008894,0.00204,0.00204,0.002042,0.00204,0.002042,0.002062,0.002066,0.002066,0.002068,0.002064,0.003454,0.003446,0.003434,0.00345,0.003438,0.003482,0.0035,0.00349,0.003484,0.003486
620,0.0004884,0.0004924,0.0004942,0.000493,0.0004924,0.0004964,0.0004936,0.0004938,0.000497,0.0005,0.00969,0.00969,0.009686,0.009694,0.009694,0.009448,0.00945,0.009444,0.009446,0.00946,0.0015444,0.001543,0.0015446,0.001544,0.0015446,0.0015846,0.0015882,0.0015876,0.0015876,0.0015848,0.00257,0.002562,0.002556,0.002564,0.002558,0.002626,0.002634,0.00263,0.002624,0.002622
622,0.0005378,0.000542,0.0005426,0.00054,0.0005422,0.0005406,0.0005364,0.0005376,0.0005408,0.000543,0.009972,0.009974,0.00997,0.009978,0.009976,0.009764,0.009764,0.00976,0.00976,0.009774,0.0010746,0.0010726,0.0010746,0.001074,0.0010742,0.0011234,0.0011262,0.0011244,0.0011246,0.0011218,0.0017738,0.001772,0.0017684,0.001769,0.001767,0.0018394,0.0018476,0.0018424,0.0018408,0.001838
624,0.0006158,0.0006208,0.00062,0.0006178,0.000622,0.0006104,0.0006108,0.0006122,0.0006122,0.0006184,0.010012,0.010014,0.01001,0.010016,0.010014,0.009844,0.009842,0.009838,0.00984,0.009848,0.0007394,0.0007384,0.0007396,0.0007396,0.0007392,0.0007758,0.0007768,0.0007758,0.0007766,0.0007752,0.0011828,0.0011788,0.00118,0.0011826,0.0011822,0.0012374,0.001243,0.0012464,0.0012432,0.0012364
626,0.000744,0.0007434,0.0007456,0.0007442,0.0007442,0.0007314,0.0007308,0.0007276,0.0007322,0.0007374,0.009834,0.009832,0.00983,0.009832,0.00983,0.00971,0.009702,0.009706,0.00971,0.009714,0.000703,0.0007036,0.0007048,0.000704,0.0007032,0.0007028,0.000704,0.000704,0.0007056,0.0007052,0.000982,0.0009816,0.00099,0.000984,0.0009894,0.0010064,0.0010028,0.0010088,0.001012,0.0010112
628,0.0009004,0.0008998,0.0009008,0.0008982,0.0009008,0.000882,0.0008808,0.0008796,0.0008836,0.0008884,0.0095,0.009498,0.0095,0.0095,0.009498,0.009422,0.009416,0.009424,0.00943,0.009432,0.0009862,0.0009872,0.000988,0.0009886,0.000987,0.0009546,0.000955,0.0009568,0.000959,0.000962,0.0012158,0.0012142,0.0012282,0.0012166,0.0012226,0.0012048,0.0011982,0.0012086,0.0012164,0.0012096
630,0.001065,0.0010658,0.0010688,0.0010668,0.0010654,0.0010466,0.0010424,0.0010436,0.0010482,0.0010552,0.009116,0.009114,0.009114,0.009116,0.009114,0.00907,0.009068,0.009078,0.009086,0.00909,0.0014026,0.0014036,0.0014052,0.0014058,0.0014038,0.0013542,0.001356,0.0013572,0.0013606,0.0013646,0.001631,0.001625,0.0016414,0.0016308,0.0016396,0.0016028,0.001597,0.0016084,0.0016176,0.0016128
632,0.001237,0.0012368,0.0012386,0.0012364,0.0012356,0.0012096,0.0012108,0.0012092,0.0012166,0.001221,0.008698,0.008696,0.008696,0.008696,0.008696,0.008676,0.008674,0.008688,0.008694,0.008698,0.00186,0.0018598,0.0018608,0.001862,0.001861,0.0018008,0.0018036,0.0018054,0.0018074,0.0018126,0.002098,0.002092,0.002112,0.002098,0.002108,0.002064,0.002056,0.002074,0.00208,0.002076
634,0.0014166,0.0014142,0.0014148,0.0014118,0.001413,0.001381,0.0013826,0.0013816,0.0013858,0.0013942,0.008272,0.00827,0.00827,0.00827,0.008268,0.008264,0.008264,0.008278,0.00828,0.008286,0.002324,0.002324,0.002324,0.002326,0.002324,0.002258,0.00226,0.002262,0.002264,0.00227,0.002578,0.002572,0.002592,0.002574,0.002588,0.002536,0.002528,0.002544,0.002554,0.002548
636,0.001609,0.001603,0.0016054,0.0016038,0.001604,0.0015728,0.0015708,0.0015694,0.0015752,0.0015812,0.007812,0.007808,0.00781,0.007812,0.007812,0.007804,0.007804,0.007816,0.007814,0.00782,0.002828,0.002824,0.002828,0.002828,0.002828,0.00275,0.002754,0.002756,0.002758,0.002764,0.003106,0.003098,0.003118,0.003102,0.003118,0.003058,0.003046,0.003062,0.003072,0.003064
638,0.0017816,0.0017688,0.0017752,0.0017718,0.0017744,0.0017344,0.0017378,0.0017332,0.0017394,0.001743,0.00742,0.007412,0.007416,0.007418,0.007418,0.007396,0.007394,0.0074,0.0074,0.007402,0.003274,0.003272,0.003274,0.003274,0.003274,0.003188,0.003192,0.003192,0.003194,0.003198,0.003578,0.003574,0.003592,0.003578,0.003592,0.003518,0.003508,0.003524,0.003526,0.003526
640,0.001944,0.0019342,0.0019414,0.0019374,0.0019378,0.0018938,0.0018936,0.0018874,0.0018952,0.0018974,0.00708,0.007072,0.007078,0.007078,0.00708,0.00704,0.007028,0.007034,0.007036,0.007036,0.00366,0.003658,0.00366,0.003662,0.003662,0.003568,0.003572,0.003572,0.003574,0.003578,0.00398,0.003974,0.003992,0.003978,0.003992,0.003912,0.0039,0.003908,0.003916,0.003908
642,0.002104,0.002094,0.0021,0.002096,0.002098,0.00205,0.002046,0.002042,0.002048,0.00205,0.006774,0.006766,0.00677,0.006774,0.006776,0.006714,0.0067,0.006706,0.006706,0.006708,0.00396,0.003956,0.00396,0.003962,0.003962,0.003868,0.003872,0.00387,0.003872,0.003876,0.00425,0.00424,0.004256,0.004242,0.004254,0.004172,0.004166,0.00417,0.00418,0.004176
644,0.002258,0.002248,0.002252,0.00225,0.002256,0.002194,0.002196,0.00219,0.002194,0.0022,0.006506,0.0065,0.006504,0.00651,0.006506,0.00643,0.006418,0.006426,0.006428,0.00643,0.004152,0.004148,0.004152,0.004152,0.004154,0.004064,0.004068,0.004066,0.004066,0.004072,0.004354,0.004338,0.004358,0.00434,0.004348,0.004284,0.00428,0.004278,0.004286,0.004286
646,0.002428,0.002418,0.00242,0.00242,0.002416,0.002362,0.00236,0.002356,0.002366,0.002366,0.006232,0.006228,0.006232,0.006234,0.006234,0.006156,0.006144,0.006154,0.006158,0.006162,0.004238,0.004234,0.004238,0.004238,0.004238,0.004156,0.004162,0.00416,0.004162,0.004166,0.00434,0.004334,0.004346,0.004338,0.004338,0.00428,0.004278,0.004286,0.004286,0.004282
648,0.002566,0.002552,0.00256,0.002558,0.002558,0.00251,0.002506,0.002502,0.002512,0.002518,0.006,0.006,0.006,0.006008,0.006006,0.005944,0.005934,0.005946,0.00595,0.005956,0.004244,0.00424,0.004244,0.004244,0.004246,0.004172,0.004182,0.00418,0.004182,0.004188,0.004298,0.004288,0.004302,0.004292,0.004296,0.004246,0.004246,0.00425,0.004256,0.004258
650,0.002668,0.002654,0.00266,0.00266,0.00266,0.002622,0.002624,0.002618,0.002624,0.00263,0.005744,0.005742,0.005744,0.005748,0.00575,0.005712,0.005708,0.005718,0.005724,0.005728,0.00419,0.004188,0.00419,0.00419,0.004192,0.004138,0.00415,0.004148,0.004152,0.00416,0.004212,0.004196,0.00421,0.004202,0.004202,0.00418,0.00418,0.004182,0.004186,0.004188
652,0.002724,0.002712,0.002722,0.00272,0.00272,0.0027,0.002698,0.002692,0.0027,0.002702,0.005434,0.005432,0.005434,0.00544,0.00544,0.005432,0.005428,0.00544,0.005446,0.00545,0.004058,0.004056,0.004058,0.004058,0.004062,0.004032,0.004046,0.004046,0.004048,0.004056,0.00405,0.004038,0.004048,0.004044,0.00404,0.004046,0.004048,0.004046,0.004052,0.004044
654,0.002762,0.002748,0.002758,0.002756,0.002758,0.002756,0.002748,0.002748,0.002754,0.002752,0.005116,0.005114,0.00512,0.005126,0.005126,0.005142,0.005136,0.005148,0.005152,0.005158,0.003832,0.00383,0.003832,0.003832,0.003836,0.003844,0.003856,0.003856,0.003856,0.003862,0.0038,0.003788,0.003798,0.003794,0.003786,0.003824,0.00383,0.003828,0.003828,0.003828
656,0.002802,0.002784,0.00279,0.002792,0.002792,0.0028,0.002796,0.002794,0.002794,0.0028,0.004816,0.004814,0.004814,0.004822,0.00482,0.004856,0.004852,0.00486,0.00486,0.00486,0.00345,0.003448,0.003448,0.003448,0.003452,0.0035,0.00351,0.003508,0.003508,0.00351,0.003398,0.003386,0.00339,0.003388,0.00338,0.00345,0.003454,0.003454,0.003442,0.003438
658,0.00284,0.002826,0.002832,0.002834,0.002832,0.002846,0.002838,0.002838,0.002834,0.00284,0.004598,0.004596,0.004596,0.004606,0.004606,0.004644,0.004636,0.00464,0.004642,0.004644,0.003018,0.003016,0.003016,0.003016,0.00302,0.003086,0.003096,0.003092,0.00309,0.003092,0.002968,0.00296,0.002962,0.002962,0.002958,0.003036,0.00304,0.003036,0.003028,0.003018
660,0.00288,0.002868,0.002874,0.002872,0.002872,0.002892,0.002876,0.002876,0.002876,0.002878,0.00442,0.004418,0.00442,0.004428,0.004426,0.004462,0.004452,0.004452,0.004452,0.004456,0.002556,0.002554,0.002556,0.002554,0.00256,0.00263,0.002638,0.002634,0.00263,0.002632,0.002526,0.002518,0.002518,0.002522,0.002512,0.002598,0.002596,0.00259,0.002584,0.002576
662,0.00291,0.002896,0.002902,0.0029,0.002902,0.002914,0.0029,0.002902,0.002898,0.002898,0.004256,0.004258,0.004258,0.004264,0.004262,0.00429,0.00428,0.00428,0.004282,0.004284,0.002092,0.00209,0.002092,0.00209,0.002094,0.00216,0.002166,0.002164,0.00216,0.002162,0.002084,0.002076,0.002076,0.00208,0.00207,0.002154,0.002148,0.00214,0.00214,0.002134
664,0.002904,0.002892,0.002896,0.002896,0.002894,0.002908,0.002892,0.002892,0.00289,0.002894,0.00407,0.004072,0.004072,0.004074,0.004072,0.00409,0.004082,0.004082,0.00409,0.004092,0.0016098,0.0016078,0.0016074,0.0016068,0.00161,0.0016698,0.0016736,0.001673,0.0016694,0.0016708,0.001621,0.0016128,0.0016178,0.0016132,0.0016098,0.0016788,0.0016764,0.0016708,0.001672,0.0016648
666,0.002792,0.00278,0.002784,0.002788,0.00279,0.002796,0.002782,0.002788,0.002782,0.002794,0.003788,0.003788,0.003794,0.003798,0.003794,0.003808,0.003806,0.003808,0.003812,0.003816,0.0011396,0.001136,0.0011382,0.0011356,0.0011396,0.001191,0.0011956,0.001194,0.0011906,0.0011938,0.001161,0.0011574,0.0011514,0.0011528,0.0011574,0.001221,0.001219,0.001212,0.0012104,0.0012014
668,0.002568,0.00256,0.002564,0.002566,0.002564,0.00258,0.002568,0.002578,0.002572,0.00258,0.003412,0.003412,0.003416,0.003424,0.003416,0.003438,0.00344,0.003442,0.003444,0.003446,0.0007484,0.000745,0.0007458,0.0007446,0.0007488,0.0007914,0.0007962,0.0007968,0.0007926,0.0007954,0.0007776,0.0007728,0.000765,0.0007766,0.0007706,0.0008244,0.0008276,0.0008144,0.0008254,0.000815
670,0.002272,0.002268,0.00227,0.002268,0.002272,0.002292,0.002286,0.002292,0.00229,0.002296,0.002972,0.00297,0.002978,0.00298,0.002978,0.003004,0.003004,0.003006,0.003008,0.003012,0.0004504,0.000449,0.0004498,0.0004478,0.0004526,0.000481,0.000484,0.000487,0.0004814,0.000485,0.0004834,0.0004806,0.0004744,0.0004852,0.0004802,0.000521,0.0005214,0.0005164,0.000518,0.0005078
672,0.0019426,0.0019422,0.0019386,0.0019378,0.0019442,0.0019652,0.00196,0.0019702,0.0019642,0.0019678,0.002506,0.002508,0.002508,0.002516,0.002512,0.00254,0.002544,0.002546,0.002548,0.002548,0.0002838,0.0002844,0.000285,0.000283,0.0002872,0.0003018,0.000303,0.0003048,0.0003022,0.0003038,0.0003204,0.0003234,0.000314,0.0003232,0.0003188,0.0003434,0.000349,0.0003472,0.0003406,0.0003354
674,0.001551,0.0015478,0.001551,0.0015526,0.0015522,0.0015922,0.0015756,0.001586,0.0015844,0.0015832,0.0019822,0.0019836,0.0019874,0.0019916,0.0019878,0.002026,0.002028,0.00203,0.00203,0.002028,0.000216,0.0002154,0.0002156,0.0002144,0.0002176,0.0002236,0.0002236,0.000227,0.000224,0.0002268,0.0002544,0.0002562,0.0002456,0.0002532,0.0002574,0.0002636,0.0002752,0.000263,0.0002696,0.0002566
676,0.0011912,0.0011876,0.0011874,0.0011882,0.0011908,0.001231,0.0012212,0.0012304,0.0012248,0.0012278,0.0015096,0.0015148,0.0015192,0.0015222,0.0015176,0.0015636,0.0015618,0.0015614,0.0015614,0.001564,0.00019244,0.00019258,0.00019288,0.00019166,0.00019644,0.00019852,0.00019958,0.0002024,0.00019832,0.0002016,0.0002302,0.0002298,0.0002284,0.000234,0.0002346,0.0002406,0.0002458,0.0002458,0.000247,0.0002344
678,0.000853,0.0008514,0.0008518,0.0008516,0.0008546,0.0008958,0.0008848,0.0008944,0.00089,0.0008906,0.0010826,0.0010872,0.0010882,0.0010952,0.0010868,0.0011378,0.001138,0.001138,0.0011384,0.0011372,0.00017842,0.0001797,0.00017996,0.0001782,0.00018298,0.00018562,0.00018628,0.00018958,0.00018616,0.00018716,0.0002184,0.000223,0.000208,0.0002226,0.0002282,0.000227,0.0002324,0.0002352,0.0002216,0.0002188
680,0.000556,0.0005552,0.0005536,0.0005556,0.0005578,0.0005998,0.0005856,0.0005946,0.000591,0.0005928,0.0007162,0.000717,0.0007192,0.000725,0.0007194,0.0007628,0.000764,0.0007664,0.0007646,0.0007644,0.00017014,0.00017156,0.00017156,0.00017076,0.00017414,0.00017632,0.0001767,0.0001825,0.00017588,0.00017766,0.0002132,0.000216,0.00019804,0.0002166,0.0002134,0.0002154,0.0002258,0.0002268,0.0002144,0.0002136
682,0.0003484,0.000352,0.000342,0.0003526,0.0003494,0.0003802,0.0003724,0.0003764,0.0003752,0.000372,0.0004548,0.0004582,0.0004634,0.000464,0.0004554,0.000494,0.0004952,0.0004958,0.0004938,0.00049,0.0001643,0.00016532,0.00016736,0.00016426,0.0001697,0.00016994,0.00017102,0.00017544,0.0001707,0.00017126,0.0002078,0.0002146,0.0002026,0.00021,0.0002104,0.0002172,0.000219,0.0002152,0.000219,0.0002142
684,0.000244,0.0002512,0.0002436,0.000247,0.0002506,0.0002714,0.000257,0.0002654,0.0002634,0.0002652,0.0003258,0.000333,0.000334,0.0003354,0.0003284,0.0003546,0.0003562,0.0003538,0.0003524,0.0003504,0.00015678,0.00016036,0.00016092,0.00015966,0.0001626,0.00016468,0.00016396,0.00016886,0.00016514,0.00016622,0.0002042,0.000215,0.00019578,0.0002084,0.0002098,0.00019768,0.0002166,0.0002196,0.0002132,0.0002132
686,0.000211,0.0002202,0.00021,0.0002152,0.0002202,0.0002324,0.0002252,0.0002308,0.000231,0.0002264,0.0002806,0.0002874,0.0002886,0.0002882,0.0002822,0.0003036,0.0002986,0.0003026,0.0002986,0.0003026,0.00014904,0.00015122,0.00015276,0.00015056,0.00015304,0.000156,0.0001557,0.0001606,0.00015656,0.00015716,0.0001951,0.00021,0.0001882,0.00019892,0.0002042,0.00019626,0.0002048,0.0002056,0.0002036,0.0002064
688,0.00019556,0.0002022,0.0001905,0.0002024,0.000204,0.0002074,0.0002072,0.0002154,0.0002078,0.0002084,0.0002518,0.0002612,0.0002582,0.000262,0.0002582,0.0002724,0.0002698,0.0002754,0.0002726,0.0002738,0.00014066,0.00014174,0.0001435,0.0001414,0.0001449,0.00014718,0.0001473,0.00015102,0.00014778,0.00014886,0.0001894,0.000199,0.00018336,0.00018824,0.0002054,0.00019352,0.00019846,0.0002014,0.00019514,0.000206
690,0.00018136,0.00018856,0.00017826,0.00018968,0.00018822,0.00019996,0.00019566,0.0002014,0.00019936,0.00019462,0.00023,0.0002404,0.0002396,0.0002356,0.0002352,0.0002498,0.0002492,0.0002514,0.000248,0.0002486,0.00013116,0.00013212,0.00013332,0.00013316,0.00013552,0.00013866,0.00013762,0.0001419,0.00013976,0.00013868,0.00018324,0.00019274,0.00017342,0.00018866,0.00018904,0.00017728,0.0001892,0.00018448,0.00018524,0.00019974
692,0.0001737,0.00017458,0.0001663,0.0001779,0.00017604,0.00017974,0.00017976,0.00018334,0.00018824,0.00018288,0.000213,0.000216,0.000217,0.000213,0.0002114,0.000228,0.0002278,0.000229,0.0002298,0.0002266,0.00012102,0.00012322,0.00012416,0.00012286,0.00012372,0.00012854,0.00012522,0.00013176,0.0001289,0.000128,0.00017064,0.00018256,0.00016292,0.00017936,0.00018068,0.0001717,0.00017936,0.00017464,0.00017568,0.000185
694,0.00015896,0.0001624,0.00015396,0.0001661,0.00016392,0.00016604,0.00016458,0.00017152,0.00017242,0.00017182,0.00019918,0.0002022,0.00019578,0.00019822,0.00019334,0.0002106,0.0002054,0.0002096,0.0002088,0.0002104,0.00011034,0.00011356,0.00011442,0.00011338,0.00011416,0.00011938,0.0001143,0.00012266,0.00011894,0.00011786,0.000164,0.00017736,0.0001599,0.00017052,0.0001721,0.00016076,0.00017058,0.00015924,0.00016894,0.00017774
696,0.0001484,0.00015364,0.00014256,0.00015686,0.00015514,0.00015754,0.00014832,0.00015696,0.00015898,0.00016172,0.00017842,0.00018536,0.0001822,0.00018198,0.0001797,0.0001938,0.00018648,0.00019224,0.00019274,0.00018926,0.00010246,0.00010496,0.00010494,0.00010412,0.0001058,0.0001108,0.00010644,0.00011296,0.0001078,0.00010828,0.0001553,0.00016634,0.0001568,0.00016352,0.00016864,0.00014576,0.00015656,0.00014906,0.00016028,0.00016698
698,0.00013966,0.00014392,0.0001334,0.00014636,0.00014366,0.00013638,0.00014108,0.00014814,0.00015026,0.00015064,0.0001694,0.00017188,0.000169,0.0001686,0.00016726,0.00017692,0.00017252,0.00017964,0.00017714,0.00017114,9.63e-05,9.712e-05,9.89e-05,9.692e-05,9.706e-05,0.00010286,9.842e-05,0.00010424,0.00010168,0.00010076,0.0001482,0.00016062,0.00015576,0.0001577,0.00016178,0.00013226,0.0001475,0.00014646,0.00015348,0.0001613
700,0.0001309,0.00013972,0.00012414,0.00013612,0.0001358,0.00012336,0.00013608,0.00013546,0.00013966,0.00013996,0.00015388,0.0001606,0.00015822,0.00015238,0.00015654,0.00016618,0.0001626,0.00016726,0.00016188,0.00016088,8.914e-05,9.162e-05,9.272e-05,9.23e-05,9.108e-05,9.672e-05,9.272e-05,9.752e-05,9.612e-05,9.482e-05,0.00014854,0.00015924,0.0001494,0.00015414,0.00015642,0.00013566,0.00014154,0.00014578,0.00015082,0.00015724
702,0.00012286,0.00012868,0.00011552,0.00012938,0.00012768,0.00011982,0.00012356,0.00013226,0.00013328,0.00012856,0.00013988,0.00015094,0.00015068,0.00014308,0.0001433,0.000149,0.00014758,0.00015456,0.00014862,0.00015004,8.334e-05,8.552e-05,8.52e-05,8.684e-05,8.574e-05,9.132e-05,8.644e-05,9.132e-05,9.122e-05,8.802e-05,0.000139,0.00015082,0.00013958,0.00014146,0.0001523,0.0001336,0.00013692,0.0001332,0.00013402,0.00015448
704,0.00012112,0.00012632,0.00010698,0.00012142,0.00012012,0.0001073,0.00011754,0.00012666,0.00012108,0.00012188,0.00013224,0.00013874,0.00013868,0.000133,0.00013908,0.00013896,0.00014196,0.00014714,0.00014268,0.00013964,7.912e-05,8.068e-05,8.082e-05,8.202e-05,7.984e-05,8.61e-05,8.122e-05,8.586e-05,8.57e-05,8.386e-05,0.00013308,0.00015136,0.00013602,0.00013838,0.00014386,0.00012724,0.00013618,0.00012906,0.00013596,0.00014878
706,0.00011472,0.00011956,0.00010478,0.000119,0.0001176,0.00010742,0.00010964,0.0001177,0.00011434,0.00011404,0.00013268,0.0001319,0.00013312,0.00012594,0.00013218,0.00013646,0.00013076,0.00014134,0.00013462,0.00013234,7.446e-05,7.492e-05,7.604e-05,7.726e-05,7.586e-05,8.126e-05,7.544e-05,8.276e-05,8.09e-05,7.914e-05,0.00013514,0.0001469,0.00013638,0.00013634,0.00014972,0.00012242,0.0001349,0.00011616,0.00012856,0.00013646
708,0.00011,0.00011386,0.00010228,0.00011414,0.00011144,9.932e-05,0.00010612,0.00010966,0.00011394,0.00011212,0.00012854,0.00013058,0.00012378,0.00012498,0.00012396,0.00012664,0.00012692,0.00013486,0.00012768,0.0001271,7.084e-05,7.258e-05,7.408e-05,7.454e-05,7.182e-05,7.63e-05,7.446e-05,7.74e-05,7.876e-05,7.446e-05,0.00013062,0.00013218,0.00014256,0.00013924,0.00015066,0.00012014,0.00012424,0.0001169,0.00011696,0.00013582
710,0.00010524,0.00011482,9.936e-05,0.00011086,0.0001014,8.99e-05,0.00010848,0.0001052,0.00011096,0.00010786,0.0001239,0.00012462,0.00012396,0.00012042,0.00011954,0.00012596,0.00012024,0.00013238,0.00012616,0.00012076,6.952e-05,6.874e-05,7.172e-05,7.152e-05,6.732e-05,7.552e-05,7.054e-05,7.548e-05,7.398e-05,7.404e-05,0.00013722,0.00013462,0.00013914,0.00012864,0.00015072,0.00011648,0.00011584,0.00010838,0.0001234,0.0001384
712,0.00010012,0.00010554,0.00010148,0.00011188,0.0001005,8.764e-05,0.00010284,9.83e-05,0.00010342,0.00010362,0.00012444,0.00012426,0.00012226,0.00011494,0.00012062,0.00011834,0.00011782,0.00012888,0.0001208,0.00012312,6.814e-05,6.87e-05,7.046e-05,6.888e-05,6.438e-05,7.442e-05,6.974e-05,7.146e-05,7.38e-05,7.02e-05,0.00012652,0.00013092,0.00013244,0.00012688,0.00014238,0.00012082,0.00012396,0.0001123,0.00011762,0.00012842
714,9.992e-05,0.0001026,9.316e-05,0.00010332,9.89e-05,8.726e-05,0.00010254,0.00010182,9.982e-05,0.00010096,0.00012082,0.00012302,0.00011696,0.00011318,0.00012178,0.00011544,0.0001156,0.00012614,0.00011796,0.00011588,6.522e-05,6.576e-05,6.868e-05,6.638e-05,6.35e-05,7.128e-05,6.77e-05,6.962e-05,7.242e-05,6.934e-05,0.00012166,0.00012672,0.00013038,0.00012652,0.00013746,0.00011926,0.000123,0.00011204,0.00012684,0.00012774
716,9.4e-05,0.0001001,9.19e-05,9.596e-05,9.062e-05,8.106e-05,9.532e-05,9.732e-05,8.41e-05,9.012e-05,0.0001172,0.00012006,0.00011002,0.00011516,0.00011534,0.00010744,0.00011644,0.00012026,0.00011268,0.00011492,6.312e-05,6.27e-05,6.514e-05,6.394e-05,6.004e-05,6.948e-05,6.462e-05,6.722e-05,6.946e-05,6.664e-05,0.00012444,0.00011554,0.00013312,0.00012176,0.00011942,0.00011034,0.00011984,0.00010276,0.00011046,0.00012246
718,9.384e-05,9.352e-05,8.888e-05,8.948e-05,8.41e-05,7.402e-05,9.358e-05,8.77e-05,8.172e-05,8.806e-05,0.00010678,0.00011052,0.0001067,0.00010248,0.000109,0.00010662,0.000105,0.00011524,0.00010226,0.00010774,5.934e-05,5.85e-05,6.182e-05,6.062e-05,5.706e-05,6.384e-05,6.07e-05,6.41e-05,6.434e-05,6.236e-05,0.00011652,0.00010934,0.0001201,0.000119,0.00012062,0.00012208,0.00011272,8.844e-05,0.00010128,0.00010588
720,8.24e-05,9.172e-05,8.312e-05,8.334e-05,7.948e-05,6.972e-05,8.53e-05,7.914e-05,7.322e-05,7.678e-05,0.00010546,0.00010298,9.534e-05,0.00010016,0.00010446,9.96e-05,9.73e-05,0.00010358,0.00010126,0.00010666,5.682e-05,5.436e-05,5.704e-05,5.756e-05,5.302e-05,6.04e-05,6.044e-05,5.998e-05,6.086e-05,6.1e-05,0.00011832,0.00011228,0.00011148,0.00011014,0.00011928,0.00010832,0.00010856,9.608e-05,0.00010538,0.00011
722,8.062e-05,8.178e-05,7.648e-05,7.848e-05,7.424e-05,6.78e-05,8.048e-05,8.11e-05,6.798e-05,7.396e-05,0.00010224,0.0001002,9.024e-05,9.332e-05,9.664e-05,9.61e-05,9.428e-05,0.0001037,9.494e-05,9.882e-05,5.418e-05,5.39e-05,5.466e-05,5.314e-05,4.918e-05,5.734e-05,5.702e-05,5.836e-05,5.8e-05,5.746e-05,0.00010792,0.00010884,0.00011676,0.00011134,0.00010328,0.00010856,0.00010014,9.976e-05,9.006e-05,0.00010554
724,7.796e-05,7.362e-05,7.142e-05,7.194e-05,6.858e-05,7.18e-05,7.322e-05,7.444e-05,6.578e-05,7.468e-05,9.58e-05,9.494e-05,8.81e-05,9.104e-05,9.58e-05,8.792e-05,9.098e-05,9.65e-05,8.954e-05,9.424e-05,5.384e-05,5.146e-05,5.314e-05,5.3e-05,4.696e-05,5.56e-05,5.548e-05,5.602e-05,5.686e-05,5.366e-05,0.0001068,9.108e-05,0.000116,9.974e-05,9.958e-05,0.00011414,9.434e-05,9.154e-05,9.44e-05,9.128e-05
726,6.796e-05,6.812e-05,6.4e-05,6.424e-05,6.224e-05,5.482e-05,7.312e-05,7.416e-05,5.31e-05,6.954e-05,9.458e-05,9.582e-05,8.498e-05,8.718e-05,9.556e-05,8.542e-05,8.874e-05,9.71e-05,8.688e-05,8.916e-05,5.134e-05,4.94e-05,5.238e-05,5.118e-05,4.722e-05,5.388e-05,5.606e-05,5.134e-05,5.74e-05,5.462e-05,0.0001011,8.276e-05,0.00012068,9.848e-05,9.34e-05,0.00010546,9.436e-05,0.00010096,7.97e-05,8.582e-05
728,6.622e-05,7.036e-05,8.028e-05,6.056e-05,6.504e-05,5.18e-05,6.804e-05,6.628e-05,5.224e-05,5.642e-05,0.00010146,9.568e-05,8.9e-05,8.804e-05,9.288e-05,8.608e-05,8.82e-05,8.956e-05,8.654e-05,8.886e-05,5.39e-05,5.074e-05,5.176e-05,5.144e-05,4.608e-05,5.238e-05,5.666e-05,5.502e-05,5.836e-05,5.374e-05,0.00010078,8.398e-05,0.00010266,0.00010846,0.00010308,0.0001081,9.126e-05,8.984e-05,7.794e-05,7.77e-05
730,6.938e-05,5.942e-05,6.984e-05,5.824e-05,5.91e-05,6.182e-05,7.064e-05,6.108e-05,4.968e-05,6.246e-05,0.00010172,8.994e-05,8.482e-05,8.874e-05,9.004e-05,8.594e-05,9.102e-05,8.854e-05,8.518e-05,9.332e-05,5.452e-05,5.14e-05,5.406e-05,4.99e-05,4.788e-05,5.242e-05,5.828e-05,5.416e-05,5.84e-05,5.448e-05,9.726e-05,8.388e-05,0.00011766,9.52e-05,8.48e-05,0.00012238,9.094e-05,7.938e-05,8.768e-05,7.258e-05
732,6.748e-05,6.386e-05,5.71e-05,5.848e-05,5.854e-05,4.79e-05,6.152e-05,6.556e-05,5.046e-05,5.714e-05,9.722e-05,8.574e-05,8.436e-05,9.226e-05,9.102e-05,8.614e-05,9.398e-05,8.554e-05,8.86e-05,8.922e-05,5.53e-05,4.96e-05,5.434e-05,5.078e-05,4.918e-05,5.49e-05,5.94e-05,5.286e-05,5.594e-05,5.6e-05,9.728e-05,8.244e-05,0.00010924,9.41e-05,9.558e-05,0.0001203,8.316e-05,8.36e-05,8.25e-05,7.948e-05
734,5.894e-05,5.922e-05,6.466e-05,5.37e-05,5.142e-05,4.932e-05,5.512e-05,6.048e-05,5.054e-05,5.048e-05,8.858e-05,8.948e-05,8.272e-05,9.282e-05,9.096e-05,8.768e-05,9.012e-05,8.416e-05,8.152e-05,7.67e-05,5.562e-05,4.648e-05,4.968e-05,5.13e-05,4.286e-05,5.172e-05,5.798e-05,5.25e-05,5.188e-05,5.216e-05,9.01e-05,8.254e-05,8.772e-05,0.00010098,8.37e-05,0.00013348,8.684e-05,7.758e-05,8.066e-05,6.678e-05
736,6.152e-05,4.894e-05,5.62e-05,5.022e-05,4.892e-05,4.928e-05,5.836e-05,4.742e-05,4.198e-05,5.132e-05,9.03e-05,7.566e-05,8.18e-05,8.848e-05,8.484e-05,7.634e-05,7.634e-05,7.988e-05,7.03e-05,7.574e-05,5.064e-05,4.598e-05,4.924e-05,4.464e-05,4.04e-05,4.54e-05,5.38e-05,4.568e-05,4.968e-05,4.75e-05,8.508e-05,6.984e-05,8.08e-05,7.512e-05,6.952e-05,9.916e-05,7.908e-05,6.546e-05,6.928e-05,4.274e-05
738,3.666e-05,4.156e-05,4.584e-05,5.142e-05,3.51e-05,4.566e-05,3.952e-05,4.844e-05,2.864e-05,4.084e-05,8.124e-05,6.856e-05,7.202e-05,8.082e-05,7.772e-05,7.426e-05,7.324e-05,6.854e-05,6.956e-05,6.87e-05,4.322e-05,4.184e-05,4.042e-05,3.96e-05,3.684e-05,4.204e-05,4.842e-05,4.092e-05,4.254e-05,4.286e-05,8.304e-05,5.084e-05,8.6e-05,7.656e-05,6.388e-05,9.65e-05,8.196e-05,7.252e-05,5.666e-05,3.464e-05
740,3.424e-05,3.95e-05,4.994e-05,3.976e-05,3.44e-05,4.76e-05,3.658e-05,4.342e-05,2.954e-05,2.734e-05,7.494e-05,6.366e-05,7.136e-05,7.634e-05,7.05e-05,6.706e-05,7.356e-05,5.99e-05,5.962e-05,6.866e-05,3.83e-05,3.508e-05,3.72e-05,3.734e-05,3.326e-05,3.514e-05,4.494e-05,3.528e-05,3.936e-05,3.788e-05,6.61e-05,4.184e-05,7.782e-05,7.248e-05,5.788e-05,9.168e-05,6.906e-05,5.98e-05,5.518e-05,3.854e-05
742,2.62e-05,2.232e-05,4.164e-05,4.408e-05,3.036e-05,3.436e-05,2.854e-05,4.318e-05,1.9214e-05,2.528e-05,7.184e-05,5.798e-05,6.856e-05,7.788e-05,6.692e-05,6.18e-05,6.928e-05,6.416e-05,5.596e-05,6.992e-05,3.482e-05,3.336e-05,3.5e-05,3.198e-05,3.306e-05,3.02e-05,4.05e-05,3.326e-05,3.758e-05,3.48e-05,6.942e-05,3.808e-05,5.048e-05,5.862e-05,4.482e-05,8.956e-05,6.772e-05,3.198e-05,5.026e-05,3.432e-05
744,2.33e-05,2.078e-05,2.884e-05,3.156e-05,2.332e-05,3.452e-05,1.878e-05,2.958e-05,9.52e-06,3.042e-05,7.02e-05,6.118e-05,5.966e-05,7.378e-05,6.798e-05,4.796e-05,6.616e-05,5.8e-05,5.684e-05,5.572e-05,3.164e-05,3.14e-05,3.198e-05,2.684e-05,2.606e-05,3.016e-05,3.618e-05,3.05e-05,3.486e-05,3.156e-05,6.476e-05,5.038e-05,3.346e-05,6.348e-05,4.596e-05,6.626e-05,7.306e-05,4.45e-05,6.784e-05,1.4372e-05
746,1.4676e-05,1.4942e-05,3.256e-05,3.396e-05,2.55e-05,2.252e-05,2.062e-05,3.824e-05,1.5376e-05,1.9722e-05,5.806e-05,6.304e-05,5.476e-05,6.892e-05,6.34e-05,5.16e-05,6.346e-05,5.552e-05,5.07e-05,5.63e-05,3.134e-05,2.86e-05,2.594e-05,2.668e-05,2.44e-05,2.266e-05,3.334e-05,2.768e-05,3.248e-05,2.912e-05,6.338e-05,3.17e-05,3.684e-05,4.084e-05,3.668e-05,8.832e-05,6.912e-05,5.226e-05,5.422e-05,2.164e-05
748,2.096e-05,5.736e-06,3.402e-05,3.018e-05,2.27e-05,1.3596e-05,9.312e-06,3.642e-05,1.5796e-05,1.108e-05,5.75e-05,5.532e-05,5.378e-05,6.89e-05,5.256e-05,5.466e-05,6.734e-05,4.868e-05,5.958e-05,5.608e-05,2.892e-05,2.146e-05,2.388e-05,2.606e-05,2.328e-05,1.8034e-05,3.284e-05,2.562e-05,3.024e-05,2.732e-05,4.728e-05,3.062e-05,3.306e-05,4.37e-05,3.488e-05,6.238e-05,6.342e-05,3.86e-05,5.324e-05,2.386e-05
750,1.916e-05,1.4548e-05,3.316e-05,3.142e-05,2.252e-05,2.142e-05,7.55e-06,2.79e-05,8.368e-06,1.4176e-05,5.488e-05,5.338e-05,5.716e-05,6.326e-05,4.814e-05,6.32e-05,5.644e-05,4.962e-05,6.172e-05,4.83e-05,2.83e-05,2.306e-05,2.322e-05,2.092e-05,2.208e-05,2.318e-05,3.144e-05,2.634e-05,2.776e-05,2.618e-05,4.65e-05,2.946e-05,2.904e-05,4.33e-05,2.976e-05,5.216e-05,5.782e-05,3.14e-05,4.932e-05,4.294e-06
752,8.31e-06,5.078e-06,2.974e-05,2.42e-05,3.086e-05,2.842e-05,6.93e-06,3.526e-05,1.2102e-05,1.9598e-05,5.908e-05,5.766e-05,5.228e-05,6.812e-05,5.134e-05,4.622e-05,6.42e-05,5.59e-05,6.33e-05,4.55e-05,2.542e-05,2.566e-05,2.296e-05,2.698e-05,2.442e-05,2.296e-05,3.21e-05,2.156e-05,2.346e-05,3.258e-05,3.632e-05,4.59e-05,2.968e-05,4.05e-05,3.134e-05,4.466e-05,5.53e-05,5.226e-05,7.688e-05,3.204e-07
754,1.9168e-05,3.61e-06,3.202e-05,2.766e-05,2.124e-05,2.55e-05,1.9294e-05,3.26e-05,1.94e-05,1.5724e-05,5.486e-05,6.148e-05,5.134e-05,7.198e-05,5.614e-05,5.064e-05,6.548e-05,6.12e-05,5.534e-05,6.49e-05,2.38e-05,1.887e-05,1.7766e-05,2.654e-05,2.46e-05,2.028e-05,3.234e-05,2.15e-05,3.05e-05,2.706e-05,5.23e-05,3.952e-05,1.8266e-05,3.68e-05,3.168e-05,2.044e-05,6.354e-05,4.554e-05,5.25e-05,3.904e-06
756,1.9942e-05,8.152e-06,4.26e-05,2.774e-05,1.4236e-05,4.13e-05,1.4996e-05,4.092e-05,2.562e-05,2.232e-05,4.88e-05,5.844e-05,5.45e-05,7.78e-05,5.324e-05,6.046e-05,7.47e-05,5.892e-05,5.646e-05,6.148e-05,2.44e-05,2.064e-05,2.144e-05,1.9966e-05,2.344e-05,2.086e-05,3.298e-05,2.626e-05,2.772e-05,2.976e-05,5.192e-05,3.262e-05,1.791e-05,5.19e-05,2.36e-05,1.4374e-05,5.934e-05,3.704e-05,6.32e-05,4.078e-06
758,2.04e-05,3.916e-06,4.946e-05,3.83e-05,2.52e-05,3.004e-05,1.0028e-05,4.734e-05,2.864e-05,1.3122e-05,5.012e-05,5.018e-05,5.256e-05,7.918e-05,5.28e-05,6.362e-05,6.988e-05,5.988e-05,5.174e-05,6.3e-05,2.562e-05,2.552e-05,2.496e-05,2.352e-05,2.568e-05,2.754e-05,2.842e-05,2.704e-05,2.772e-05,3.35e-05,3.42e-05,3.812e-05,2.888e-05,5.184e-05,1.968e-05,3.752e-05,6.282e-05,3.806e-05,5.624e-05,2.42e-05
760,1.9844e-05,6.756e-06,4.942e-05,3.298e-05,3.114e-05,5.29e-05,7.008e-06,3.448e-05,3.526e-05,1.6584e-05,4.94e-05,5.062e-05,6e-05,8.8e-05,5.944e-05,7.368e-05,6.194e-05,6.084e-05,5.91e-05,6.03e-05,2.476e-05,2.51e-05,2.13e-05,2.584e-05,2.742e-05,3.046e-05,2.72e-05,2.95e-05,2.95e-05,3.01e-05,3.348e-05,4.218e-05,2.152e-05,5.514e-05,6.998e-05,4.514e-05,3.934e-05,4.628e-05,7.462e-05,1.567e-05
762,2.532e-05,7.188e-06,4.548e-05,3.174e-05,3.118e-05,4.368e-05,2.04e-05,4.242e-05,2.624e-05,2.622e-05,4.608e-05,5.672e-05,5.822e-05,8.53e-05,5.84e-05,7.182e-05,5.896e-05,5.268e-05,6.154e-05,6.13e-05,2.316e-05,2.306e-05,2.166e-05,2.61e-05,2.594e-05,2.676e-05,2.534e-05,3.458e-05,3.132e-05,3.472e-05,5.186e-05,7.038e-05,4.77e-05,6.486e-05,4.514e-05,2.856e-05,4.936e-05,5.178e-05,0.00010322,3.578e-06
764,1.7554e-05,1.9254e-05,4.72e-05,3.968e-05,2.206e-05,5.542e-05,2.134e-05,4.842e-05,2.748e-05,3.348e-05,4.378e-05,5.302e-05,6.854e-05,8.326e-05,6.274e-05,6.252e-05,7.536e-05,6.206e-05,5.934e-05,6.002e-05,2.362e-05,2.402e-05,2.192e-05,2.914e-05,2.994e-05,2.502e-05,2.252e-05,3.468e-05,3.204e-05,3.546e-05,4.818e-05,7.82e-05,3.352e-05,6.43e-05,5.278e-05,1.7228e-05,8.128e-05,8.098e-05,7.412e-05,3.246e-05
766,3.102e-05,7.886e-06,3.212e-05,4.24e-05,2.55e-05,4.26e-05,2.598e-05,6.166e-05,4.018e-05,5.962e-05,3.506e-05,5.414e-05,7.264e-05,9.444e-05,6.366e-05,8.21e-05,7.448e-05,6.488e-05,6.264e-05,6.56e-05,2.476e-05,2.178e-05,2.19e-05,2.324e-05,2.594e-05,3.058e-05,2.378e-05,3.232e-05,2.994e-05,3.708e-05,3.35e-05,7.348e-05,4.232e-05,5.436e-05,5.422e-05,3.784e-05,6.34e-05,6.906e-05,8.698e-05,5.01e-05
768,2.864e-05,1.13e-05,3.138e-05,3.788e-05,2.79e-05,2.82e-05,2.476e-05,5.588e-05,4.484e-05,5.058e-05,3.676e-05,6.29e-05,6.856e-05,8.4e-05,5.836e-05,8.608e-05,7.272e-05,6.852e-05,5.584e-05,6.12e-05,1.7082e-05,2.032e-05,2.484e-05,2.378e-05,2.992e-05,3.484e-05,2.564e-05,4.08e-05,3.508e-05,3.312e-05,2.044e-05,5.682e-05,7.504e-05,3.53e-05,4.622e-05,2.76e-05,4.12e-05,8.674e-05,0.0001003,3.652e-05
770,2.656e-05,3.092e-05,4.126e-05,4.474e-05,4.33e-05,5.932e-05,3.696e-05,5.288e-05,5.934e-05,5.87e-05,4.024e-05,4.358e-05,6.928e-05,7.448e-05,5.448e-05,7.324e-05,6.692e-05,7.274e-05,6.3e-05,7.236e-05,1.941e-05,2.332e-05,2.002e-05,2.532e-05,3.032e-05,3.646e-05,1.6704e-05,3.004e-05,2.88e-05,3.268e-05,1.5072e-05,9.196e-05,7.11e-05,4.932e-05,7.178e-05,5.66e-05,6.08e-05,7.532e-05,7.054e-05,7.428e-05
772,4.456e-05,3.124e-05,3.46e-05,5.236e-05,4.738e-05,6.97e-05,4.036e-05,5.85e-05,5.938e-05,7.886e-05,3.066e-05,5.618e-05,8.266e-05,7.81e-05,6.046e-05,8.164e-05,5.33e-05,7.012e-05,6.986e-05,8.566e-05,1.8866e-05,2.46e-05,1.6648e-05,2.412e-05,3.184e-05,3.716e-05,1.6128e-05,3.468e-05,3.216e-05,3.446e-05,5.354e-06,0.0001102,6.882e-05,4.548e-05,7.324e-05,4.43e-05,7.52e-05,6.988e-05,8.922e-05,8.578e-05
774,4.226e-05,2.68e-05,4.934e-05,5.028e-05,3.97e-05,6.11e-05,3.508e-05,4.522e-05,4.194e-05,7.686e-05,2.508e-05,5.842e-05,8.862e-05,7.502e-05,7.05e-05,7.804e-05,5.278e-05,6.608e-05,6.018e-05,7.502e-05,1.787e-05,2.312e-05,2.186e-05,2.232e-05,3.612e-05,3.43e-05,1.8628e-05,3.58e-05,3.252e-05,4.06e-05,3.766e-05,0.00010848,6.988e-05,6.15e-05,8.086e-05,4.41e-05,8.476e-05,0.00010244,0.0001029,0.00011286
776,4.96e-05,4.22e-05,4.366e-05,5.418e-05,3.45e-05,6.156e-05,3.994e-05,5.576e-05,5.802e-05,8.288e-05,2.202e-05,7.108e-05,8.528e-05,8.586e-05,6.644e-05,8.136e-05,4.56e-05,7.448e-05,6.218e-05,8.846e-05,2.116e-05,1.8504e-05,2.412e-05,2.124e-05,3.154e-05,3.664e-05,1.981e-05,4.276e-05,4.292e-05,4.43e-05,4.768e-05,0.00011754,9.934e-05,5.866e-05,0.0001143,1.643e-05,8.428e-05,0.00012686,5.28e-05,0.00014862
778,5.12e-05,6.138e-05,4.382e-05,7.468e-05,3.908e-05,6.858e-05,5.7e-05,6.99e-05,5.218e-05,9.272e-05,5.406e-06,5.85e-05,9.324e-05,8.918e-05,6.784e-05,8.788e-05,5.896e-05,8.342e-05,7.374e-05,0.00010446,1.8962e-05,2.652e-05,1.8746e-05,1.871e-05,3.202e-05,4.216e-05,2.078e-05,4.002e-05,3.504e-05,3.344e-05,5.842e-05,0.00010148,0.00015566,7.246e-05,0.00011314,6.53e-05,6.202e-05,0.00013128,0.00010422,0.00017426
780,5.336e-05,6.504e-05,5.118e-05,5.33e-05,4.818e-05,5.022e-05,6.25e-05,7.93e-05,5.216e-05,8.35e-05,1.8584e-06,5.746e-05,8.612e-05,6.73e-05,8.986e-05,6.184e-05,4.438e-05,8.676e-05,5.604e-05,9.598e-05,2.096e-05,2.652e-05,2.238e-05,2.13e-05,3.454e-05,4.054e-05,1.8434e-05,4.334e-05,3.262e-05,3.868e-05,5.948e-05,0.000123,0.0001193,6.946e-05,0.00011602,5.812e-05,9.08e-05,0.00016234,0.0001004,0.0001981
