Wavelength [nm],Background (Mel),Modulation (Mel),Background (LMS),Modulation (LMS)380,8.342e-06,6.294e-06,1.2498e-05,2.806e-06,1.803e-05,1.9874e-06,7.222e-06,7.998e-06,1.3898e-06,5.916e-06,1.0008e-05,9.782e-06,1.1678e-05,1.2774e-05,7.684e-06,9.748e-06,9.082e-06,4.7e-06,7.158e-06,8.874e-06,4.33e-06,7.048e-06,4.782e-06,4.104e-06,5.508e-06,4.614e-06,3.576e-06,5.234e-06,4.868e-06,4.232e-06,3.428e-05,1.1908e-05,1.4676e-05,2.932e-05,2.93e-05,2.83e-05,1.0386e-05,2.33e-05,1.9434e-05,8.32e-06
382,7.2e-06,7.488e-07,1.49e-05,6.474e-06,1.4904e-05,5.606e-06,8.592e-06,8.34e-06,0,1.6216e-06,1.0008e-05,6.988e-06,9.344e-06,1.17e-05,9.534e-06,1.4128e-05,7.874e-06,3.036e-06,7.876e-06,1.3384e-05,3.184e-06,6.164e-06,5.036e-06,3.698e-06,4.262e-06,4.548e-06,3.784e-06,2.038e-06,3.698e-06,3.214e-06,2.792e-05,1.6988e-05,1.9516e-05,2.712e-05,2.492e-05,2.568e-05,1.2892e-05,1.7556e-05,1.0614e-05,7.02e-06
384,7.078e-06,5.632e-06,1.1398e-05,5.55e-06,1.5076e-05,3.676e-06,1.0898e-05,5.346e-06,6.104e-07,8.944e-06,1.4638e-05,8.108e-06,8.106e-06,1.1812e-05,1.3864e-05,9.538e-06,6.658e-06,5.786e-06,9.304e-06,1.0668e-05,3.71e-06,5.29e-06,4.89e-06,4.282e-06,4.192e-06,4.406e-06,4.988e-06,3.608e-06,4.366e-06,2.228e-06,2.88e-05,1.8848e-05,1.3282e-05,2.32e-05,2.102e-05,2.5e-05,1.348e-05,2.206e-05,1.1502e-05,7.972e-06
386,8.108e-06,9.208e-06,1.1934e-05,7.598e-06,1.008e-05,3.046e-06,1.113e-05,5.762e-06,3e-06,8.32e-06,1.4532e-05,8.95e-06,1.1272e-05,1.3258e-05,1.18e-05,1.4988e-05,4.514e-06,3.716e-06,6.498e-06,1.2914e-05,4.43e-06,5.68e-06,3.642e-06,3.868e-06,4.022e-06,4.806e-06,3.438e-06,3.354e-06,5.004e-06,2.9e-06,2.842e-05,2.094e-05,1.013e-05,2.052e-05,2.066e-05,1.7562e-05,1.1754e-05,1.9078e-05,1.3498e-05,7.402e-06
388,4.212e-06,7.052e-06,1.0876e-05,8.444e-06,1.1942e-05,6.316e-06,7.744e-06,3.526e-06,2.12e-06,8.1e-06,1.3068e-05,9.068e-06,1.1744e-05,1.2252e-05,1.2258e-05,1.4474e-05,5.886e-06,3.218e-06,6.694e-06,8.586e-06,5.108e-06,5.878e-06,3.224e-06,3.778e-06,4.456e-06,5.158e-06,3.446e-06,3.336e-06,3.902e-06,4.02e-06,3.09e-05,2.076e-05,7.408e-06,2.17e-05,1.8996e-05,1.6058e-05,9.678e-06,1.4692e-05,9.684e-06,3.696e-06
390,4.712e-06,2.468e-06,1.0776e-05,9.722e-06,6.602e-06,7.014e-06,1.0446e-05,5.178e-06,8.436e-07,6.654e-06,1.175e-05,9.562e-06,9.034e-06,1.6832e-05,1.2478e-05,1.1804e-05,9.194e-06,5.318e-06,6.306e-06,1.028e-05,4.19e-06,5.98e-06,2.31e-06,4.782e-06,4.78e-06,6.372e-06,2.93e-06,4.452e-06,3.564e-06,4.022e-06,2.74e-05,2.238e-05,8.762e-06,1.575e-05,1.8626e-05,1.4218e-05,1.1636e-05,1.4456e-05,6.668e-06,7.894e-06
392,8.768e-06,7.184e-06,1.2694e-05,8.356e-06,7.316e-06,6.664e-06,7.95e-06,4.5e-06,3.768e-07,3.828e-06,1.2348e-05,1.008e-05,1.0302e-05,1.5444e-05,1.1016e-05,1.4994e-05,6.796e-06,6.078e-06,5.136e-06,1.034e-05,4.29e-06,5.28e-06,2.684e-06,3.788e-06,4.488e-06,6.06e-06,3.85e-06,3.9e-06,4.25e-06,4.38e-06,2.564e-05,1.9416e-05,6.96e-06,1.5812e-05,1.8886e-05,1.9048e-05,9.822e-06,9.64e-06,9.516e-06,1.2762e-05
394,9.29e-06,7.57e-06,9.84e-06,6.686e-06,6.232e-06,7.786e-06,1.03e-05,3.836e-06,0,5.918e-06,1.0804e-05,1.039e-05,9.638e-06,1.3954e-05,1.0052e-05,1.4358e-05,5.928e-06,5.51e-06,6.68e-06,1.1614e-05,3.668e-06,4.114e-06,2.044e-06,3.98e-06,4.898e-06,5.434e-06,3.938e-06,3.982e-06,3.97e-06,5.05e-06,2.644e-05,2.012e-05,9.67e-06,1.711e-05,2.034e-05,1.7886e-05,6.466e-06,7.726e-06,6.902e-06,1.006e-05
396,5.524e-06,7.78e-06,1.1284e-05,1.1974e-05,6.296e-06,8.872e-06,9.154e-06,2.846e-06,6.782e-07,9.822e-06,1.065e-05,8.56e-06,1.0538e-05,1.569e-05,1.5884e-05,1.456e-05,2.902e-06,5.892e-06,4.766e-06,1.047e-05,2.664e-06,4.694e-06,5.746e-07,3.64e-06,3.002e-06,5.218e-06,4.16e-06,4.018e-06,3.416e-06,5.524e-06,1.6944e-05,1.356e-05,1.1228e-05,1.15e-05,1.7838e-05,1.76e-05,9.458e-06,1.105e-05,8.978e-06,4.458e-06
398,7.952e-06,9.422e-06,1.0004e-05,5.342e-06,5.308e-06,7.766e-06,9.502e-06,5.724e-06,2.268e-06,7.082e-06,1.1362e-05,1.1816e-05,9.788e-06,1.2726e-05,1.3224e-05,1.4678e-05,7.188e-06,7.506e-06,7.95e-06,1.2416e-05,2.79e-06,3.33e-06,2.144e-06,3.402e-06,3.838e-06,5.25e-06,4.424e-06,4.318e-06,4.178e-06,4.22e-06,2.38e-05,2.234e-05,1.6478e-05,1.4494e-05,1.656e-05,1.9262e-05,1.6392e-05,5.23e-06,7.786e-06,5.416e-06
400,5.732e-06,7.952e-06,9.022e-06,8.624e-06,5.65e-06,4.906e-06,4.564e-06,3.718e-06,2.96e-06,7.44e-06,1.2496e-05,1.1216e-05,9.29e-06,1.1786e-05,1.4928e-05,1.4614e-05,8.566e-06,9.206e-06,5.282e-06,1.0956e-05,3.656e-06,3.146e-06,2.296e-06,3.524e-06,4.582e-06,4.936e-06,4.888e-06,3.154e-06,4.192e-06,4.392e-06,2.218e-05,2.428e-05,1.4696e-05,1.1422e-05,9.906e-06,1.8096e-05,1.6174e-05,7.614e-06,7.316e-06,1.097e-05
402,8.856e-06,9.686e-06,1.3288e-05,8.536e-06,6.812e-06,9.57e-06,4.898e-06,3.072e-06,2.282e-06,6.722e-06,9.496e-06,1.0018e-05,8.458e-06,1.4842e-05,1.4242e-05,1.3962e-05,9.716e-06,8.758e-06,6.162e-06,1.1026e-05,2.444e-06,3.16e-06,1.2602e-06,2.878e-06,4.836e-06,4.012e-06,4.054e-06,4.248e-06,4.756e-06,4.874e-06,1.7324e-05,2.24e-05,1.0652e-05,1.3592e-05,1.1696e-05,1.6944e-05,1.2832e-05,8.322e-06,1.0004e-05,8.658e-06
404,9.01e-06,9.626e-06,1.1964e-05,5.276e-06,6.392e-06,9.838e-06,6.04e-06,4.76e-06,3.796e-06,9.354e-06,9.978e-06,1.1444e-05,8.552e-06,1.4526e-05,1.5804e-05,1.4004e-05,9.014e-06,8.554e-06,8.598e-06,9.374e-06,3.162e-06,3.626e-06,1.8088e-06,2.686e-06,4.352e-06,4.776e-06,4.958e-06,4.314e-06,4.756e-06,4.948e-06,1.9422e-05,2.204e-05,1.2998e-05,1.336e-05,1.6302e-05,1.5726e-05,1.1886e-05,7.906e-06,1.268e-05,9.402e-06
406,7.582e-06,7.862e-06,8.638e-06,8.882e-06,6.308e-06,9.61e-06,6.488e-06,5.404e-06,5.792e-06,8.526e-06,1.0238e-05,1.1086e-05,8.824e-06,1.0808e-05,1.4586e-05,1.3552e-05,8.254e-06,9.69e-06,8.362e-06,7.92e-06,4.132e-06,3.17e-06,1.4432e-06,3.35e-06,5.146e-06,4.87e-06,5.64e-06,3.72e-06,4.944e-06,4.86e-06,1.8042e-05,2.448e-05,1.141e-05,1.3444e-05,1.5842e-05,1.5992e-05,1.3976e-05,8.288e-06,1.107e-05,1.0842e-05
408,7.804e-06,6.194e-06,7.308e-06,6.58e-06,5.662e-06,9.73e-06,3.926e-06,4.418e-06,6.828e-06,7.202e-06,7.48e-06,1.0154e-05,8.138e-06,1.1472e-05,1.407e-05,1.3942e-05,8.462e-06,9.524e-06,9.136e-06,9.716e-06,3.708e-06,3.502e-06,1.7942e-06,3.194e-06,5.684e-06,4.162e-06,5.446e-06,3.43e-06,4.164e-06,5.196e-06,1.8214e-05,2.436e-05,1.4124e-05,1.5064e-05,1.4632e-05,2.042e-05,1.407e-05,5.45e-06,1.3558e-05,1.3562e-05
410,1.1488e-05,8.752e-06,7.602e-06,7.424e-06,4.968e-06,9.634e-06,2.908e-06,6.034e-06,6.306e-06,6.788e-06,8.15e-06,1.1144e-05,8.034e-06,1.112e-05,1.3912e-05,1.1748e-05,8.814e-06,9.178e-06,7.96e-06,8.704e-06,3.52e-06,3.516e-06,1.3094e-06,3.438e-06,4.604e-06,3.27e-06,4.816e-06,4.702e-06,4.614e-06,4.544e-06,2.11e-05,2.462e-05,1.7442e-05,1.4712e-05,1.6246e-05,1.542e-05,1.7178e-05,9.89e-06,1.0232e-05,1.5626e-05
412,1.1364e-05,9.4e-06,9.384e-06,8.55e-06,7.842e-06,1.3024e-05,7.966e-06,7.03e-06,6.036e-06,1.166e-05,1.017e-05,1.1736e-05,8.072e-06,1.1276e-05,1.5382e-05,1.1928e-05,9.398e-06,1.0128e-05,7.932e-06,7.85e-06,3.536e-06,3.42e-06,5.37e-07,3.538e-06,5.016e-06,4.144e-06,4.818e-06,4.698e-06,4.722e-06,5.744e-06,2.134e-05,2.912e-05,1.6888e-05,1.9962e-05,1.4474e-05,1.969e-05,2.126e-05,1.0524e-05,1.3922e-05,1.742e-05
414,1.759e-05,1.674e-05,1.7972e-05,1.7484e-05,1.4768e-05,1.979e-05,1.2444e-05,1.4552e-05,1.6486e-05,1.6166e-05,1.0936e-05,1.3758e-05,8.882e-06,1.2482e-05,1.6116e-05,1.2786e-05,1.207e-05,1.041e-05,1.0056e-05,9.558e-06,3.728e-06,2.852e-06,1.5232e-06,3.94e-06,4.324e-06,5.138e-06,4.95e-06,3.288e-06,4.82e-06,5.044e-06,3.164e-05,3.856e-05,3.066e-05,2.954e-05,2.77e-05,2.73e-05,2.692e-05,2.18e-05,2.858e-05,3.068e-05
416,4.01e-05,3.504e-05,3.716e-05,3.782e-05,3.436e-05,3.714e-05,3.192e-05,3.332e-05,3.334e-05,3.644e-05,1.5994e-05,1.9198e-05,1.4392e-05,1.7692e-05,2.09e-05,1.9926e-05,1.7466e-05,1.6816e-05,1.479e-05,1.63e-05,4.084e-06,3.816e-06,3.066e-06,4.71e-06,5.306e-06,5.554e-06,5.928e-06,3.684e-06,4.314e-06,6.298e-06,5.884e-05,6.494e-05,6.206e-05,5.7e-05,5.814e-05,5.214e-05,5.53e-05,4.772e-05,5.478e-05,5.716e-05
418,8.162e-05,8.18e-05,8.082e-05,8.208e-05,8.06e-05,8.36e-05,7.376e-05,7.564e-05,7.464e-05,7.882e-05,2.99e-05,3.174e-05,2.7e-05,2.996e-05,3.154e-05,3.168e-05,3.09e-05,2.854e-05,2.676e-05,2.834e-05,5.466e-06,4.81e-06,4.518e-06,5.24e-06,5.992e-06,5.85e-06,6.354e-06,5.438e-06,5.566e-06,6.442e-06,0.00011642,0.00012622,0.00012286,0.00011824,0.00012024,0.00011006,0.00010844,0.00010606,0.00011222,0.00011296
420,0.000154,0.00015352,0.00015316,0.0001529,0.00015194,0.00015018,0.00013964,0.00014428,0.00014356,0.00014474,5.106e-05,5.068e-05,4.808e-05,4.908e-05,5.26e-05,4.934e-05,4.876e-05,4.754e-05,4.58e-05,4.666e-05,6.582e-06,6.014e-06,6.096e-06,6.938e-06,7.582e-06,8.128e-06,7.686e-06,7.172e-06,7.44e-06,7.998e-06,0.000218,0.0002276,0.0002226,0.0002208,0.0002194,0.0002078,0.0002038,0.0002034,0.0002058,0.000208
422,0.000241,0.000239,0.0002384,0.0002406,0.0002378,0.0002308,0.000223,0.0002274,0.000227,0.0002268,7.292e-05,7.464e-05,7.202e-05,7.376e-05,7.582e-05,7.21e-05,7.116e-05,7.13e-05,6.896e-05,6.798e-05,9.3e-06,8.698e-06,8.7e-06,9.518e-06,1.0202e-05,1.0612e-05,1.0276e-05,9.286e-06,9.07e-06,1.0046e-05,0.0003582,0.0003638,0.0003604,0.0003604,0.0003558,0.00034,0.0003358,0.0003334,0.0003388,0.000342
424,0.0003266,0.000321,0.000325,0.0003248,0.0003252,0.000317,0.00031,0.0003124,0.0003128,0.000311,9.338e-05,9.548e-05,9.404e-05,9.47e-05,9.694e-05,9.336e-05,9.498e-05,9.292e-05,9.322e-05,9.184e-05,1.3146e-05,1.2468e-05,1.245e-05,1.332e-05,1.3706e-05,1.228e-05,1.3524e-05,1.1568e-05,1.2018e-05,1.3224e-05,0.0005368,0.00054,0.0005392,0.0005342,0.000529,0.0005082,0.0005064,0.0005038,0.0005094,0.0005118
426,0.0004054,0.0004032,0.0004038,0.0004062,0.0004042,0.0003966,0.0003888,0.0003918,0.0003924,0.00039,0.0001178,0.0001184,0.00011712,0.0001186,0.0001215,0.0001152,0.0001167,0.00011842,0.0001154,0.00011434,1.7884e-05,1.6868e-05,1.6162e-05,1.7248e-05,1.7842e-05,1.6906e-05,1.732e-05,1.622e-05,1.6246e-05,1.7718e-05,0.0007572,0.0007604,0.0007614,0.0007582,0.0007544,0.0007224,0.000723,0.0007224,0.0007254,0.0007302
428,0.0004772,0.0004736,0.000476,0.0004778,0.0004726,0.0004658,0.000458,0.0004614,0.0004604,0.0004594,0.00013826,0.00014174,0.00013798,0.00013946,0.00014182,0.00013772,0.00013624,0.00013716,0.00013562,0.00013366,2.308e-05,2.15e-05,2.234e-05,2.336e-05,2.224e-05,2.264e-05,2.254e-05,2.122e-05,2.15e-05,2.26e-05,0.0009994,0.0010052,0.0010056,0.0010008,0.0009934,0.0009574,0.000959,0.0009578,0.000963,0.0009664
430,0.000524,0.0005234,0.000523,0.0005262,0.0005226,0.0005148,0.0005086,0.0005106,0.0005104,0.000509,0.00015394,0.00015532,0.00015396,0.00015372,0.00015594,0.00015104,0.00015106,0.00015168,0.00015124,0.0001492,2.814e-05,2.674e-05,2.758e-05,2.856e-05,2.794e-05,2.636e-05,2.734e-05,2.678e-05,2.64e-05,2.728e-05,0.0011976,0.0012018,0.0012042,0.0012038,0.0011952,0.001156,0.0011558,0.0011596,0.0011584,0.0011632
432,0.0005296,0.000528,0.0005298,0.000532,0.0005284,0.000525,0.0005184,0.0005206,0.0005206,0.0005186,0.0001572,0.0001579,0.0001583,0.00015694,0.00015802,0.00015516,0.000155,0.00015532,0.00015542,0.00015458,3.13e-05,3.12e-05,3.146e-05,3.268e-05,3.276e-05,3.05e-05,3.094e-05,3.022e-05,3.108e-05,3.17e-05,0.0013104,0.0013156,0.0013168,0.0013164,0.0013086,0.0012754,0.0012754,0.001274,0.0012776,0.0012808
434,0.0004678,0.0004674,0.0004702,0.0004704,0.0004694,0.0004704,0.0004666,0.0004674,0.0004672,0.000468,0.00014214,0.00014266,0.00014352,0.00014282,0.00014288,0.00014366,0.00014394,0.0001445,0.00014382,0.00014148,3.432e-05,3.354e-05,3.456e-05,3.546e-05,3.544e-05,3.402e-05,3.354e-05,3.302e-05,3.43e-05,3.454e-05,0.0013086,0.0013136,0.0013142,0.001316,0.001307,0.0012824,0.0012842,0.001285,0.0012858,0.0012864
436,0.0003438,0.0003454,0.0003462,0.0003446,0.0003474,0.0003552,0.0003514,0.0003518,0.0003512,0.0003518,0.00011084,0.00011298,0.0001137,0.00011336,0.00011348,0.00011416,0.00011562,0.00011668,0.00011642,0.00011374,3.654e-05,3.568e-05,3.66e-05,3.654e-05,3.656e-05,3.538e-05,3.522e-05,3.452e-05,3.548e-05,3.608e-05,0.0012064,0.0012114,0.0012118,0.0012128,0.0012048,0.0011912,0.0011928,0.0011954,0.0011966,0.0011948
438,0.0002052,0.0002062,0.0002088,0.000206,0.0002076,0.0002176,0.0002154,0.0002162,0.0002172,0.0002144,7.858e-05,7.92e-05,8.082e-05,7.96e-05,7.98e-05,8.006e-05,8.13e-05,8.242e-05,8.398e-05,8.068e-05,3.732e-05,3.682e-05,3.79e-05,3.71e-05,3.682e-05,3.672e-05,3.618e-05,3.498e-05,3.602e-05,3.716e-05,0.0010428,0.001046,0.0010462,0.0010476,0.001042,0.001034,0.0010344,0.0010368,0.0010388,0.0010388
440,0.00010208,0.00010312,0.00010632,0.00010464,0.00010474,0.00011214,0.00010952,0.00010882,0.00011062,0.00010728,5.486e-05,5.442e-05,5.548e-05,5.68e-05,5.468e-05,5.55e-05,5.604e-05,5.704e-05,5.72e-05,5.542e-05,3.742e-05,3.7e-05,3.85e-05,3.81e-05,3.75e-05,3.718e-05,3.68e-05,3.532e-05,3.612e-05,3.806e-05,0.0008264,0.0008284,0.0008306,0.0008288,0.0008264,0.000827,0.0008234,0.0008288,0.000831,0.0008308
442,5.562e-05,6.052e-05,6.058e-05,5.926e-05,5.86e-05,6.246e-05,6.096e-05,6.25e-05,6.224e-05,5.946e-05,4.77e-05,4.644e-05,4.926e-05,4.536e-05,4.672e-05,4.652e-05,4.692e-05,4.954e-05,4.88e-05,4.616e-05,3.706e-05,3.648e-05,3.872e-05,3.716e-05,3.706e-05,3.682e-05,3.624e-05,3.504e-05,3.59e-05,3.728e-05,0.0005632,0.0005666,0.0005672,0.0005666,0.0005628,0.0005702,0.0005696,0.0005742,0.000576,0.0005758
444,4.68e-05,5.416e-05,5.266e-05,5.042e-05,5.168e-05,5.134e-05,5.194e-05,5.296e-05,5.394e-05,4.826e-05,4.784e-05,4.714e-05,4.838e-05,4.516e-05,4.608e-05,4.588e-05,4.622e-05,4.808e-05,4.834e-05,4.528e-05,3.704e-05,3.618e-05,3.85e-05,3.752e-05,3.674e-05,3.644e-05,3.614e-05,3.55e-05,3.628e-05,3.736e-05,0.0003376,0.0003428,0.0003414,0.0003438,0.0003394,0.00035,0.000348,0.0003522,0.0003512,0.0003526
446,4.702e-05,5.438e-05,5.33e-05,5.23e-05,5.262e-05,5.322e-05,5.384e-05,5.33e-05,5.278e-05,4.956e-05,4.998e-05,5.014e-05,5.17e-05,4.878e-05,4.922e-05,4.826e-05,4.886e-05,5.212e-05,5.096e-05,4.852e-05,3.794e-05,3.802e-05,4.008e-05,3.874e-05,3.8e-05,3.802e-05,3.742e-05,3.684e-05,3.774e-05,3.86e-05,0.00018744,0.00018976,0.00019038,0.0001933,0.00018764,0.00019356,0.0001924,0.00019534,0.00019648,0.0001967
448,5.188e-05,5.872e-05,5.796e-05,5.676e-05,5.634e-05,5.624e-05,5.69e-05,5.674e-05,5.578e-05,5.43e-05,5.394e-05,5.378e-05,5.558e-05,5.374e-05,5.414e-05,5.39e-05,5.358e-05,5.586e-05,5.516e-05,5.282e-05,4.158e-05,4.176e-05,4.286e-05,4.18e-05,4.11e-05,4.098e-05,4.054e-05,4.018e-05,4.056e-05,4.118e-05,0.00012026,0.00012334,0.00012154,0.00012594,0.00012122,0.00011998,0.00012198,0.00012608,0.00012602,0.00012526
450,5.71e-05,6.314e-05,6.262e-05,6.038e-05,6.202e-05,6.02e-05,6.318e-05,6.306e-05,6.102e-05,6.038e-05,6.084e-05,5.904e-05,6.168e-05,5.96e-05,5.84e-05,5.822e-05,5.886e-05,6.128e-05,6.07e-05,5.82e-05,4.692e-05,4.626e-05,4.704e-05,4.636e-05,4.608e-05,4.502e-05,4.544e-05,4.514e-05,4.532e-05,4.54e-05,0.00010476,0.00010546,0.00010614,0.00010808,0.00010518,0.00010258,0.00010548,0.00010848,0.00010622,0.00010828
452,6.106e-05,6.786e-05,6.828e-05,6.542e-05,6.582e-05,6.316e-05,6.704e-05,6.438e-05,6.282e-05,6.466e-05,6.622e-05,6.338e-05,6.634e-05,6.408e-05,6.23e-05,6.202e-05,6.23e-05,6.496e-05,6.44e-05,6.256e-05,5.062e-05,5.024e-05,5.154e-05,5.036e-05,5.008e-05,4.904e-05,4.906e-05,4.906e-05,4.926e-05,4.938e-05,0.0001028,0.00010574,0.000107,0.00010838,0.00010622,0.00010412,0.00010462,0.00010622,0.00010564,0.0001088
454,6.368e-05,6.804e-05,6.744e-05,6.536e-05,6.644e-05,6.178e-05,6.89e-05,6.604e-05,6.492e-05,6.508e-05,6.878e-05,6.686e-05,6.832e-05,6.446e-05,6.426e-05,6.398e-05,6.496e-05,6.856e-05,6.746e-05,6.498e-05,5.222e-05,5.348e-05,5.432e-05,5.342e-05,5.226e-05,5.088e-05,5.086e-05,5.092e-05,5.148e-05,5.138e-05,0.0001026,0.00010572,0.0001049,0.00010774,0.00010432,0.0001046,0.00010308,0.00010792,0.00010442,0.00010746
456,6.446e-05,7.212e-05,6.868e-05,6.608e-05,6.908e-05,6.256e-05,7.066e-05,6.766e-05,6.744e-05,6.704e-05,7.106e-05,6.998e-05,7.44e-05,7.032e-05,6.864e-05,6.63e-05,6.914e-05,7.168e-05,7.078e-05,6.798e-05,5.534e-05,5.636e-05,5.726e-05,5.536e-05,5.476e-05,5.472e-05,5.324e-05,5.424e-05,5.39e-05,5.392e-05,0.00010442,0.00010352,0.0001058,0.0001114,0.00010964,0.00010704,0.00010384,0.00010824,0.00010622,0.00010654
458,6.788e-05,7.488e-05,7.438e-05,7.08e-05,7.248e-05,6.688e-05,7.41e-05,7.186e-05,7.062e-05,6.978e-05,7.654e-05,7.518e-05,7.766e-05,7.476e-05,7.242e-05,7.144e-05,7.262e-05,7.44e-05,7.462e-05,7.288e-05,5.972e-05,5.992e-05,6.094e-05,5.944e-05,5.95e-05,5.844e-05,5.75e-05,5.858e-05,5.756e-05,5.824e-05,0.00010784,0.0001089,0.00010734,0.00011216,0.00011082,0.00011028,0.00010688,0.0001101,0.00010846,0.00010898
460,7.272e-05,7.828e-05,7.81e-05,7.284e-05,7.738e-05,7.19e-05,7.728e-05,7.58e-05,7.454e-05,7.476e-05,8.258e-05,7.982e-05,8.326e-05,7.908e-05,7.838e-05,7.78e-05,7.804e-05,7.954e-05,7.896e-05,7.89e-05,6.38e-05,6.426e-05,6.534e-05,6.35e-05,6.33e-05,6.166e-05,6.216e-05,6.222e-05,6.164e-05,6.208e-05,0.00010882,0.00011226,0.00011198,0.00011604,0.00011696,0.00011246,0.0001123,0.0001155,0.00011308,0.00011158
462,7.534e-05,8.276e-05,8.076e-05,7.834e-05,7.932e-05,7.452e-05,8.156e-05,7.828e-05,7.684e-05,7.85e-05,8.652e-05,8.552e-05,8.708e-05,8.41e-05,8.448e-05,8.132e-05,8.198e-05,8.364e-05,8.388e-05,8.202e-05,6.798e-05,6.798e-05,6.872e-05,6.698e-05,6.736e-05,6.548e-05,6.598e-05,6.652e-05,6.592e-05,6.602e-05,0.0001114,0.00011534,0.00011414,0.00011868,0.00011984,0.00011458,0.00011326,0.00012,0.00011522,0.00011418
464,7.916e-05,8.668e-05,8.426e-05,8.44e-05,8.526e-05,7.84e-05,8.466e-05,8.026e-05,8.182e-05,8.04e-05,9.244e-05,9.084e-05,9.334e-05,8.784e-05,8.924e-05,8.722e-05,8.766e-05,8.904e-05,8.868e-05,8.798e-05,7.196e-05,7.21e-05,7.308e-05,7.2e-05,7.136e-05,7.046e-05,6.966e-05,7.12e-05,7.004e-05,7.026e-05,0.0001138,0.00011838,0.00011806,0.00012264,0.00012142,0.0001178,0.00011602,0.00011976,0.00012036,0.00011646
466,8.38e-05,8.764e-05,8.806e-05,8.65e-05,8.958e-05,8.354e-05,8.878e-05,8.43e-05,8.508e-05,8.566e-05,9.72e-05,9.538e-05,9.78e-05,9.434e-05,9.462e-05,9.38e-05,9.328e-05,9.476e-05,9.276e-05,9.404e-05,7.684e-05,7.768e-05,7.792e-05,7.638e-05,7.608e-05,7.512e-05,7.45e-05,7.668e-05,7.528e-05,7.464e-05,0.00012072,0.000122,0.00012382,0.00012666,0.00012626,0.00012418,0.00012324,0.0001225,0.0001224,0.00012118
468,9.07e-05,9.46e-05,9.394e-05,9.218e-05,9.554e-05,8.692e-05,9.16e-05,9.046e-05,9.202e-05,9.138e-05,0.00010642,0.00010252,0.00010692,0.00010418,0.00010186,9.866e-05,9.994e-05,0.00010162,0.00010036,0.00010246,8.322e-05,8.404e-05,8.402e-05,8.278e-05,8.316e-05,8.072e-05,8.008e-05,8.252e-05,8.128e-05,8.01e-05,0.00012732,0.00013006,0.00013144,0.00013274,0.00013362,0.00012842,0.00012962,0.00013068,0.00012534,0.00012784
470,9.41e-05,9.818e-05,9.698e-05,9.444e-05,9.516e-05,8.984e-05,9.564e-05,9.212e-05,9.228e-05,9.472e-05,0.00011012,0.00010796,0.00011156,0.0001086,0.00010612,0.00010394,0.00010458,0.00010358,0.00010576,0.00010518,8.71e-05,8.774e-05,8.776e-05,8.694e-05,8.726e-05,8.434e-05,8.43e-05,8.648e-05,8.496e-05,8.446e-05,0.0001297,0.00013156,0.00013244,0.00013342,0.00013518,0.0001293,0.00013018,0.0001318,0.00012772,0.00012804
472,9.542e-05,9.888e-05,9.828e-05,9.5e-05,9.64e-05,9.15e-05,9.468e-05,9.3e-05,9.182e-05,9.49e-05,0.000112,0.0001102,0.00011406,0.00011202,0.0001098,0.00010618,0.00010936,0.00010682,0.0001062,0.00010858,9.01e-05,9.098e-05,9.046e-05,8.95e-05,8.99e-05,8.692e-05,8.628e-05,8.848e-05,8.732e-05,8.758e-05,0.0001298,0.0001329,0.0001351,0.00013212,0.00013582,0.00012856,0.00012942,0.00013242,0.00012682,0.00012922
474,9.622e-05,0.00010102,9.736e-05,9.422e-05,9.75e-05,9.23e-05,9.5e-05,9.224e-05,9.388e-05,9.564e-05,0.00011496,0.00011278,0.00011424,0.00011432,0.00011194,0.00010862,0.0001114,0.00010802,0.00010896,0.00011106,9.268e-05,9.278e-05,9.188e-05,9.132e-05,9.182e-05,8.912e-05,8.762e-05,8.994e-05,8.894e-05,8.94e-05,0.00012862,0.00013118,0.00013412,0.00013162,0.00013606,0.0001285,0.00012854,0.00013138,0.00012484,0.00012738
476,9.364e-05,9.81e-05,9.554e-05,9.358e-05,9.472e-05,9.008e-05,9.252e-05,9.054e-05,9.164e-05,9.522e-05,0.00011272,0.00011158,0.00011364,0.00011154,0.00011086,0.00010738,0.00010888,0.00010706,0.0001067,0.0001108,9.186e-05,9.21e-05,9.156e-05,9.114e-05,9.09e-05,8.844e-05,8.734e-05,8.976e-05,8.852e-05,8.888e-05,0.00012558,0.000129,0.00012796,0.0001271,0.00013148,0.00012168,0.0001242,0.00012464,0.00012198,0.00012164
478,9.176e-05,9.402e-05,9.474e-05,9.268e-05,9.426e-05,8.926e-05,9.196e-05,8.936e-05,8.96e-05,9.286e-05,0.00011228,0.00011206,0.00011158,0.00011156,0.00011074,0.00010834,0.00010856,0.00010712,0.00010804,0.00011066,9.238e-05,9.226e-05,9.214e-05,9.154e-05,9.148e-05,8.856e-05,8.792e-05,9.022e-05,8.918e-05,8.924e-05,0.00012342,0.0001243,0.00012544,0.00012334,0.00012718,0.00011982,0.00012218,0.00012086,0.00011952,0.0001198
480,9.102e-05,9.686e-05,9.666e-05,9.446e-05,9.394e-05,9.188e-05,9.382e-05,8.926e-05,9.14e-05,9.332e-05,0.00011648,0.00011644,0.00011538,0.0001172,0.00011558,0.00011094,0.00011178,0.00011178,0.00011118,0.00011322,9.706e-05,9.658e-05,9.516e-05,9.558e-05,9.614e-05,9.294e-05,9.214e-05,9.468e-05,9.284e-05,9.202e-05,0.00012476,0.00012554,0.00012632,0.00012408,0.0001287,0.00012246,0.0001231,0.00012256,0.00011844,0.00012028
482,9.718e-05,0.0001004,9.752e-05,9.976e-05,9.914e-05,9.614e-05,9.576e-05,9.302e-05,9.662e-05,9.752e-05,0.00012446,0.00012122,0.00012138,0.00012324,0.00012288,0.0001195,0.00011812,0.00011776,0.00011896,0.00012218,0.00010432,0.0001034,0.00010244,0.00010274,0.00010268,9.992e-05,9.89e-05,0.00010078,9.964e-05,9.884e-05,0.00012706,0.00012858,0.00013088,0.00012934,0.0001341,0.00012708,0.00012562,0.00012662,0.00012586,0.00012406
484,9.964e-05,0.00010278,0.00010026,0.0001008,0.00010304,9.978e-05,9.77e-05,9.502e-05,9.72e-05,0.00010028,0.00012854,0.00012648,0.00012636,0.00012828,0.00012656,0.00012488,0.00012406,0.00012054,0.00012402,0.00012586,0.00010968,0.00010832,0.0001074,0.00010744,0.00010812,0.00010432,0.00010412,0.00010568,0.0001049,0.0001038,0.00012878,0.00013312,0.00012916,0.00012916,0.00013488,0.00012852,0.00012874,0.00012632,0.00012744,0.00012692
486,9.98e-05,0.000103,0.0001011,0.00010086,0.00010138,9.826e-05,9.702e-05,9.348e-05,9.64e-05,9.962e-05,0.000135,0.0001344,0.00013338,0.00013642,0.0001332,0.00012986,0.0001296,0.00012642,0.00012908,0.00013036,0.00011664,0.00011632,0.0001147,0.00011488,0.00011596,0.00011026,0.00010982,0.00011202,0.00011026,0.0001101,0.00013012,0.00013106,0.000129,0.0001293,0.00013384,0.00012604,0.00012686,0.0001251,0.00012634,0.00012372
488,0.00010032,0.00010334,0.00010162,0.0001014,0.00010098,9.984e-05,9.7e-05,9.492e-05,9.802e-05,9.958e-05,0.00016592,0.00016574,0.00016196,0.0001676,0.00016412,0.00015612,0.0001571,0.00015488,0.00015588,0.00015648,0.00014656,0.00014662,0.00014442,0.00014532,0.00014542,0.0001357,0.00013548,0.00013784,0.00013594,0.00013588,0.00013484,0.00013386,0.00013304,0.00013284,0.00013494,0.00012908,0.00012774,0.00012718,0.00012866,0.00012532
490,0.00010516,0.0001051,0.00010446,0.00010432,0.00010538,0.00010254,0.00010072,9.722e-05,0.00010084,0.00010374,0.0002674,0.0002686,0.0002626,0.0002696,0.0002654,0.0002468,0.0002458,0.0002446,0.000245,0.0002466,0.0002412,0.000241,0.000239,0.000239,0.0002392,0.0002198,0.0002202,0.0002216,0.0002204,0.00022,0.00014404,0.0001456,0.00014232,0.00014174,0.0001439,0.00013812,0.00013846,0.000134,0.0001388,0.00013466
492,0.0001124,0.00011016,0.00010952,0.00011242,0.00011058,0.00010988,0.00010574,0.0001037,0.00010602,0.0001108,0.000489,0.0004892,0.0004844,0.000489,0.000487,0.0004494,0.0004504,0.0004478,0.0004482,0.0004506,0.0004402,0.000438,0.000437,0.0004366,0.000437,0.0004012,0.0004014,0.0004026,0.0004016,0.000402,0.00016624,0.00016566,0.00016172,0.0001614,0.00016502,0.00015528,0.00015318,0.00015272,0.00015642,0.00015142
494,0.00011618,0.00011536,0.00011454,0.0001154,0.00011568,0.00011422,0.00011018,0.00010862,0.0001116,0.00011306,0.0008936,0.000895,0.0008894,0.0008964,0.0008922,0.0008262,0.000826,0.0008238,0.0008262,0.0008284,0.0007492,0.0007466,0.000746,0.0007456,0.0007452,0.0006928,0.000693,0.0006954,0.0006928,0.000694,0.00019062,0.00019342,0.00018834,0.00019334,0.00019298,0.00017964,0.00018072,0.0001802,0.00018326,0.00017878
496,0.00012148,0.00011926,0.0001226,0.0001216,0.0001219,0.00012072,0.00011292,0.0001139,0.00011768,0.0001174,0.0014426,0.0014444,0.0014394,0.001445,0.0014394,0.0013408,0.0013408,0.001338,0.0013404,0.0013426,0.001042,0.0010404,0.001039,0.0010386,0.0010384,0.0009774,0.0009766,0.000978,0.0009776,0.0009776,0.0002242,0.0002266,0.0002222,0.000224,0.0002238,0.0002122,0.0002126,0.0002106,0.0002138,0.000206
498,0.00013122,0.0001313,0.0001332,0.00013256,0.0001313,0.00012906,0.0001224,0.0001234,0.00012654,0.00012592,0.002152,0.002154,0.00215,0.002156,0.00215,0.002012,0.002012,0.002008,0.002012,0.002012,0.0012834,0.001281,0.0012804,0.0012806,0.0012802,0.0012132,0.0012142,0.0012144,0.0012144,0.0012136,0.000263,0.000263,0.0002624,0.0002616,0.0002622,0.0002494,0.0002484,0.0002462,0.0002476,0.0002446
500,0.00014902,0.00014918,0.00014778,0.00015046,0.00014934,0.0001455,0.00013908,0.000142,0.00014354,0.00014218,0.002964,0.002966,0.002962,0.002968,0.002962,0.00279,0.00279,0.002786,0.00279,0.002792,0.0014696,0.0014672,0.001467,0.0014672,0.0014668,0.001397,0.0013984,0.0013986,0.001398,0.0013974,0.0003066,0.0003062,0.0003052,0.0003058,0.0003032,0.0002894,0.0002918,0.0002886,0.000291,0.0002878
502,0.00016958,0.00016604,0.0001683,0.00017118,0.00016962,0.00016346,0.00015732,0.00016072,0.00016146,0.0001608,0.00373,0.003732,0.003728,0.003734,0.003728,0.00354,0.003538,0.003536,0.003538,0.003538,0.0015974,0.0015954,0.0015952,0.001595,0.001595,0.0015256,0.0015262,0.0015268,0.001526,0.0015262,0.0003454,0.0003468,0.0003444,0.000346,0.0003398,0.0003278,0.0003288,0.0003268,0.0003288,0.0003262
504,0.0001841,0.00018252,0.00018348,0.0001857,0.0001844,0.0001774,0.00017388,0.00017448,0.00017582,0.0001751,0.004304,0.004308,0.004304,0.00431,0.004304,0.004116,0.004114,0.004114,0.004114,0.004114,0.0016626,0.001661,0.0016608,0.001661,0.0016606,0.0015964,0.0015962,0.0015958,0.0015964,0.0015958,0.00037,0.0003736,0.000366,0.0003688,0.000368,0.0003548,0.0003516,0.000353,0.0003572,0.0003522
506,0.00018904,0.00018902,0.00018844,0.00019346,0.00019008,0.0001844,0.00017934,0.0001822,0.0001825,0.0001832,0.004586,0.00459,0.00459,0.004594,0.00459,0.004422,0.004418,0.004416,0.004418,0.004418,0.0016184,0.0016172,0.001618,0.0016172,0.0016168,0.0015676,0.001568,0.0015668,0.0015674,0.001567,0.0003712,0.0003744,0.000371,0.0003736,0.0003702,0.0003572,0.0003578,0.0003598,0.0003626,0.0003558
508,0.00019206,0.00019118,0.00019314,0.00019512,0.00019422,0.00018614,0.0001843,0.00018618,0.00018794,0.00018488,0.004522,0.00453,0.004528,0.004532,0.004528,0.004388,0.004386,0.004386,0.004388,0.004384,0.0014012,0.0014,0.0014004,0.0014006,0.0014002,0.0013762,0.0013766,0.0013754,0.0013762,0.0013742,0.0003566,0.0003608,0.0003556,0.0003584,0.0003564,0.0003444,0.0003462,0.0003438,0.000347,0.0003414
510,0.00019216,0.00019204,0.00019288,0.00019472,0.00019384,0.0001883,0.00018294,0.00018558,0.00018898,0.00018464,0.004194,0.0042,0.004198,0.0042,0.004198,0.004096,0.004096,0.004092,0.004094,0.00409,0.0010548,0.001054,0.0010544,0.001055,0.001055,0.0010534,0.0010538,0.0010524,0.0010532,0.0010522,0.0003322,0.0003352,0.00033,0.0003318,0.0003314,0.0003214,0.0003228,0.0003198,0.0003258,0.0003194
512,0.00018652,0.00018704,0.00018852,0.00018942,0.00018868,0.00018234,0.00018034,0.0001827,0.00018424,0.00018152,0.00361,0.003612,0.003612,0.003614,0.003614,0.003558,0.003558,0.003556,0.003556,0.003552,0.0006978,0.0006968,0.0006978,0.0006982,0.0006984,0.000706,0.0007064,0.0007046,0.0007052,0.000705,0.000301,0.0003022,0.000299,0.0003022,0.0002992,0.0002928,0.0002958,0.0002918,0.0002972,0.00029
514,0.0001748,0.00017496,0.00017648,0.00017686,0.0001785,0.00017058,0.00017042,0.00017404,0.00017338,0.00016994,0.002742,0.002744,0.002746,0.002746,0.002748,0.002746,0.002746,0.002746,0.002744,0.002742,0.0004402,0.0004398,0.0004406,0.0004408,0.0004412,0.0004464,0.0004462,0.000445,0.0004454,0.0004458,0.0002648,0.0002652,0.000262,0.0002666,0.0002628,0.0002582,0.0002604,0.000259,0.0002614,0.0002554
516,0.00015816,0.00015852,0.00016004,0.00016048,0.0001621,0.00015616,0.00015484,0.00015772,0.00015688,0.00015238,0.001718,0.0017176,0.0017176,0.0017194,0.0017186,0.001759,0.0017566,0.0017578,0.0017576,0.0017542,0.0002884,0.000288,0.0002896,0.0002892,0.0002892,0.0002906,0.0002914,0.0002892,0.00029,0.0002904,0.000228,0.0002294,0.0002276,0.0002276,0.0002244,0.000222,0.0002218,0.0002228,0.000225,0.000221
518,0.00014576,0.00014524,0.0001468,0.00014884,0.00014932,0.00014288,0.00013934,0.00014454,0.00014328,0.00014012,0.0008142,0.0008142,0.0008146,0.0008162,0.0008138,0.0008514,0.0008514,0.000852,0.0008502,0.0008494,0.000203,0.0002024,0.0002032,0.0002028,0.0002024,0.0002012,0.0002014,0.000201,0.0002006,0.0002018,0.0002006,0.0002018,0.0001994,0.0002016,0.00019796,0.00019366,0.00019492,0.00019666,0.00019906,0.00019214
520,0.00014136,0.0001422,0.0001441,0.00014472,0.00014554,0.0001381,0.00013812,0.00013962,0.00013992,0.00013796,0.0003816,0.0003806,0.0003816,0.0003822,0.0003802,0.000394,0.000392,0.0003946,0.000393,0.000392,0.00016974,0.00017006,0.0001702,0.00017008,0.00016968,0.00016642,0.00016638,0.0001653,0.00016554,0.00016578,0.00019062,0.00019234,0.0001889,0.00019288,0.00018962,0.00018488,0.00018804,0.00018788,0.00018878,0.00018476
522,0.0001438,0.00014296,0.0001465,0.00014546,0.00014694,0.00013934,0.00013888,0.0001419,0.00014172,0.0001389,0.000259,0.000259,0.0002594,0.0002594,0.0002574,0.0002582,0.0002576,0.0002598,0.0002576,0.0002566,0.0001613,0.00016138,0.00016268,0.00016218,0.00016122,0.0001575,0.00015702,0.00015616,0.00015648,0.0001568,0.00019272,0.00019236,0.00019182,0.00019418,0.00019072,0.00018538,0.00018646,0.00018654,0.00019012,0.00018734
524,0.0001479,0.00014754,0.00014928,0.00014718,0.00014944,0.00014184,0.00014244,0.00014526,0.0001445,0.00014272,0.000235,0.000236,0.0002356,0.0002352,0.0002336,0.0002302,0.0002298,0.000232,0.00023,0.0002298,0.00015958,0.00016024,0.00016158,0.0001609,0.00015986,0.00015548,0.00015508,0.00015474,0.0001546,0.00015556,0.00019546,0.00019534,0.00019492,0.00019768,0.0001941,0.00018914,0.00019022,0.00019082,0.00019344,0.00019146
526,0.00015184,0.00015092,0.00015358,0.00015186,0.00015482,0.00014562,0.00014638,0.00014922,0.00014722,0.00014692,0.0002328,0.0002326,0.0002334,0.0002326,0.0002314,0.0002278,0.0002264,0.000228,0.0002272,0.0002258,0.00015972,0.00016026,0.0001614,0.00016066,0.00015984,0.00015558,0.00015544,0.00015488,0.00015466,0.00015604,0.0002006,0.00019976,0.00019864,0.0002022,0.00019672,0.00019268,0.00019376,0.00019642,0.00019894,0.00019628
528,0.00015562,0.00015454,0.00015744,0.00015612,0.00015694,0.0001507,0.00015014,0.0001532,0.00015224,0.00015086,0.0002328,0.000232,0.000233,0.0002308,0.0002302,0.0002254,0.0002264,0.000227,0.0002264,0.0002248,0.00015994,0.00016028,0.00016102,0.00016006,0.00015974,0.00015566,0.00015568,0.00015434,0.00015464,0.00015546,0.0002042,0.0002038,0.0002038,0.000206,0.0002008,0.00019698,0.0002006,0.0002014,0.0002012,0.0002004
530,0.00015996,0.00016002,0.00016198,0.00016016,0.00016258,0.00015462,0.0001541,0.00015722,0.0001565,0.0001555,0.0002308,0.0002294,0.0002316,0.0002294,0.000228,0.0002236,0.000222,0.000225,0.0002228,0.0002222,0.0001603,0.00016056,0.00016206,0.0001607,0.00016052,0.00015508,0.0001556,0.00015448,0.00015476,0.0001556,0.0002104,0.0002098,0.000211,0.0002094,0.0002078,0.000204,0.000204,0.0002066,0.0002058,0.0002064
532,0.00016462,0.00016476,0.0001674,0.00016434,0.00016584,0.0001578,0.00015944,0.00016104,0.00015894,0.00015888,0.0002278,0.000226,0.0002282,0.0002264,0.0002252,0.0002198,0.0002184,0.000222,0.0002198,0.0002186,0.00016086,0.00016128,0.00016258,0.00016198,0.00016136,0.00015626,0.00015638,0.00015582,0.00015652,0.00015674,0.000212,0.000213,0.000215,0.0002156,0.0002114,0.0002094,0.0002098,0.0002118,0.0002108,0.0002126
534,0.00016792,0.00016824,0.00017132,0.00016812,0.00016966,0.00016256,0.00016322,0.00016466,0.0001629,0.00016284,0.000225,0.000224,0.0002254,0.0002244,0.0002226,0.0002174,0.0002172,0.0002194,0.000219,0.000216,0.0001613,0.000162,0.0001638,0.0001623,0.0001622,0.0001567,0.00015712,0.00015704,0.00015724,0.00015768,0.0002184,0.0002174,0.0002202,0.0002196,0.000217,0.0002138,0.0002154,0.0002174,0.0002168,0.000218
536,0.00017168,0.00017294,0.00017454,0.00017174,0.0001735,0.0001674,0.0001673,0.0001683,0.00016776,0.00016716,0.000225,0.000224,0.0002258,0.0002234,0.0002228,0.0002176,0.0002162,0.00022,0.000219,0.000216,0.00016256,0.00016332,0.00016524,0.00016342,0.00016342,0.000158,0.0001585,0.00015818,0.00015864,0.00015928,0.0002238,0.0002228,0.0002254,0.000224,0.0002226,0.0002192,0.0002206,0.0002234,0.0002218,0.0002242
538,0.00017644,0.00017696,0.00017864,0.00017608,0.00017842,0.00017102,0.000174,0.00017206,0.00017238,0.00017252,0.0002254,0.0002242,0.000227,0.0002232,0.000224,0.0002178,0.0002162,0.0002206,0.000219,0.000217,0.00016392,0.00016446,0.00016642,0.0001645,0.0001648,0.00015966,0.00015974,0.00015972,0.0001599,0.00016098,0.0002296,0.0002276,0.0002312,0.00023,0.0002276,0.0002254,0.0002258,0.000229,0.000226,0.0002308
540,0.00018074,0.0001813,0.00018346,0.00018078,0.00018152,0.00017692,0.00017786,0.00017722,0.00017514,0.0001768,0.0002268,0.000225,0.0002272,0.0002246,0.0002254,0.0002198,0.0002188,0.0002208,0.0002194,0.0002176,0.00016532,0.00016612,0.00016746,0.00016644,0.0001661,0.00016138,0.00016144,0.00016136,0.0001614,0.00016294,0.0002358,0.0002342,0.0002378,0.0002354,0.0002338,0.0002328,0.0002314,0.0002338,0.0002322,0.0002354
542,0.00018584,0.00018646,0.00018922,0.00018568,0.00018688,0.0001822,0.00018282,0.00018382,0.00018202,0.00018322,0.0002292,0.0002272,0.0002308,0.0002276,0.0002282,0.0002206,0.0002214,0.0002232,0.0002222,0.0002212,0.0001682,0.0001685,0.00016964,0.00016836,0.00016848,0.00016308,0.00016362,0.00016356,0.00016396,0.00016452,0.000243,0.0002442,0.0002474,0.0002436,0.0002426,0.000242,0.0002408,0.0002446,0.0002404,0.0002464
544,0.00019256,0.00019282,0.00019462,0.00019122,0.0001915,0.0001868,0.0001889,0.00018752,0.00018644,0.0001882,0.0002312,0.0002284,0.0002332,0.0002282,0.00023,0.000223,0.0002234,0.0002254,0.0002238,0.000223,0.00016992,0.00017066,0.00017172,0.00017142,0.0001708,0.00016546,0.00016542,0.00016582,0.00016626,0.00016644,0.0002524,0.0002506,0.0002542,0.0002492,0.00025,0.0002468,0.0002488,0.000251,0.0002478,0.0002528
546,0.0001955,0.00019646,0.00019776,0.00019616,0.00019592,0.00019212,0.00019414,0.0001911,0.0001913,0.00019218,0.0002312,0.0002296,0.0002326,0.0002288,0.0002304,0.0002236,0.0002242,0.0002262,0.0002246,0.0002232,0.00017144,0.0001724,0.0001728,0.0001727,0.00017202,0.00016742,0.00016698,0.00016766,0.00016774,0.00016784,0.0002594,0.0002578,0.0002614,0.0002566,0.000257,0.0002562,0.0002548,0.000257,0.0002554,0.0002604
548,0.0002002,0.0002014,0.0002026,0.0002018,0.0002012,0.0001968,0.0001983,0.0001954,0.0001957,0.00019832,0.0002324,0.0002302,0.0002328,0.0002304,0.000231,0.000225,0.0002248,0.0002268,0.0002244,0.0002246,0.00017346,0.00017404,0.00017462,0.00017404,0.00017368,0.00016894,0.00016916,0.0001694,0.0001696,0.00017014,0.0002672,0.0002658,0.0002704,0.0002664,0.0002674,0.0002648,0.0002632,0.0002662,0.0002636,0.0002676
550,0.000205,0.0002062,0.000207,0.0002058,0.0002046,0.0002004,0.0002034,0.0002016,0.0002004,0.000203,0.0002324,0.00023,0.000232,0.0002306,0.000233,0.0002252,0.0002252,0.0002264,0.0002252,0.0002256,0.0001745,0.00017528,0.00017568,0.00017548,0.0001755,0.00017066,0.00017068,0.00017098,0.00017148,0.00017122,0.0002756,0.0002756,0.0002778,0.0002766,0.0002764,0.0002714,0.0002742,0.0002758,0.000272,0.0002784
552,0.0002096,0.0002108,0.0002106,0.0002082,0.0002102,0.0002044,0.0002084,0.0002052,0.0002046,0.0002056,0.0002322,0.0002306,0.0002338,0.000231,0.0002328,0.0002258,0.0002264,0.0002278,0.0002254,0.000227,0.00017638,0.0001767,0.00017694,0.00017672,0.00017654,0.00017174,0.0001721,0.00017272,0.0001725,0.00017256,0.000289,0.0002884,0.0002908,0.000289,0.0002886,0.0002854,0.0002858,0.000289,0.0002874,0.0002918
554,0.0002142,0.000216,0.0002138,0.0002118,0.0002148,0.0002086,0.0002118,0.0002086,0.0002094,0.00021,0.000233,0.0002314,0.000234,0.0002318,0.0002328,0.0002264,0.0002268,0.000228,0.0002268,0.0002278,0.0001774,0.00017794,0.00017786,0.00017834,0.00017844,0.00017372,0.00017324,0.00017408,0.0001742,0.00017432,0.0003058,0.0003074,0.0003098,0.0003074,0.0003076,0.000303,0.0003034,0.000305,0.0003038,0.0003064
556,0.0002174,0.0002194,0.0002172,0.0002168,0.0002164,0.0002146,0.0002156,0.0002132,0.0002136,0.0002138,0.0002322,0.000231,0.0002346,0.0002314,0.0002338,0.0002268,0.0002282,0.0002288,0.000227,0.0002294,0.00017778,0.00017822,0.00017842,0.00017874,0.00017874,0.00017404,0.00017394,0.00017484,0.00017494,0.00017414,0.0003412,0.0003428,0.0003448,0.0003426,0.0003438,0.0003348,0.000336,0.0003374,0.0003352,0.0003404
558,0.0002218,0.0002218,0.000221,0.0002198,0.0002192,0.0002186,0.0002188,0.0002158,0.0002176,0.000218,0.0002326,0.0002316,0.000234,0.0002324,0.0002342,0.0002274,0.0002292,0.00023,0.0002276,0.0002292,0.00017842,0.00017884,0.00017836,0.00017914,0.00017884,0.00017442,0.0001747,0.00017602,0.00017514,0.00017494,0.0004484,0.0004502,0.000454,0.0004512,0.0004512,0.0004332,0.0004328,0.0004332,0.0004316,0.0004362
560,0.0002262,0.000227,0.0002258,0.0002256,0.0002232,0.0002218,0.0002238,0.0002206,0.0002216,0.0002208,0.0002332,0.0002324,0.000234,0.0002338,0.0002346,0.0002288,0.000229,0.00023,0.0002288,0.0002296,0.00017886,0.00017942,0.00017902,0.0001797,0.00017976,0.0001757,0.00017492,0.00017682,0.00017618,0.00017598,0.0007584,0.0007598,0.0007658,0.0007606,0.0007608,0.0007146,0.0007166,0.0007158,0.0007144,0.0007192
562,0.0002326,0.0002328,0.0002318,0.0002324,0.0002296,0.000228,0.0002294,0.0002258,0.0002274,0.0002272,0.0002332,0.0002322,0.0002326,0.0002328,0.000234,0.0002294,0.00023,0.00023,0.0002294,0.0002288,0.00017886,0.00017992,0.0001794,0.00018,0.0001796,0.00017622,0.0001757,0.00017646,0.0001762,0.00017582,0.0014268,0.0014312,0.0014358,0.0014316,0.0014292,0.0013414,0.0013418,0.0013408,0.0013378,0.0013474
564,0.0002504,0.0002514,0.0002492,0.0002484,0.0002484,0.0002448,0.0002462,0.000245,0.0002452,0.000245,0.0002324,0.0002324,0.0002336,0.0002332,0.0002338,0.0002288,0.000231,0.0002292,0.0002292,0.0002294,0.00017926,0.00018014,0.00017878,0.00017962,0.00017974,0.00017608,0.0001761,0.00017736,0.00017634,0.00017586,0.00263,0.002634,0.002642,0.002636,0.00263,0.002494,0.002496,0.002496,0.002496,0.002504
566,0.000298,0.0003,0.0002966,0.0002972,0.0002972,0.0002874,0.0002894,0.0002868,0.000289,0.000288,0.0002336,0.0002318,0.0002338,0.0002346,0.0002344,0.000231,0.0002324,0.00023,0.00023,0.000231,0.00018052,0.00018128,0.00018034,0.00018098,0.00018044,0.00017744,0.00017692,0.0001784,0.00017778,0.00017698,0.004036,0.004042,0.00405,0.004044,0.004036,0.003864,0.003868,0.003866,0.003866,0.003874
568,0.0004034,0.0004044,0.000401,0.0004022,0.000401,0.000385,0.0003874,0.0003824,0.0003854,0.0003856,0.0002346,0.000234,0.0002346,0.0002348,0.000235,0.0002322,0.0002332,0.0002322,0.000232,0.0002326,0.0001815,0.0001815,0.00018116,0.00018198,0.00018104,0.0001786,0.00017772,0.00017946,0.00017908,0.00017844,0.005524,0.00553,0.00554,0.005534,0.005522,0.005322,0.005328,0.005326,0.005324,0.005334
570,0.000628,0.0006288,0.0006264,0.0006278,0.0006256,0.0005928,0.000596,0.0005896,0.0005936,0.0005934,0.0002374,0.0002366,0.0002376,0.0002374,0.0002386,0.0002346,0.0002358,0.0002344,0.0002348,0.0002354,0.00018278,0.00018288,0.00018246,0.00018302,0.00018236,0.00017986,0.00017912,0.00018064,0.00018004,0.0001797,0.00703,0.007038,0.007048,0.00704,0.00703,0.006806,0.006812,0.006812,0.006806,0.00682
572,0.001088,0.0010872,0.0010846,0.0010894,0.0010846,0.0010216,0.0010228,0.0010184,0.0010222,0.00102,0.0002414,0.000242,0.000242,0.0002428,0.000244,0.000239,0.0002406,0.0002394,0.0002406,0.0002406,0.00018444,0.00018484,0.00018436,0.0001848,0.00018478,0.00018206,0.00018118,0.00018266,0.0001821,0.00018088,0.0085,0.008502,0.008518,0.00851,0.008498,0.008256,0.008264,0.00826,0.008258,0.00827
574,0.00194,0.0019418,0.0019354,0.0019434,0.001937,0.0018372,0.0018328,0.0018314,0.0018354,0.0018346,0.0002514,0.0002504,0.0002512,0.0002508,0.0002528,0.0002484,0.0002508,0.0002492,0.0002496,0.0002504,0.00018716,0.00018672,0.00018634,0.00018644,0.00018614,0.00018438,0.00018362,0.00018512,0.00018404,0.00018336,0.009914,0.009916,0.009936,0.009924,0.009914,0.009664,0.009674,0.00967,0.009666,0.00968
576,0.003176,0.003176,0.00317,0.00318,0.003172,0.003038,0.003032,0.003028,0.003034,0.003034,0.0002658,0.0002658,0.000266,0.0002676,0.0002676,0.0002628,0.0002648,0.0002616,0.0002652,0.0002638,0.00019014,0.00018958,0.00018892,0.00018982,0.00018918,0.0001871,0.0001861,0.00018738,0.00018628,0.00018646,0.011096,0.011098,0.01112,0.011108,0.011096,0.010862,0.010874,0.010868,0.010866,0.010876
578,0.004474,0.004476,0.004468,0.004482,0.004472,0.004312,0.004308,0.004304,0.00431,0.00431,0.0002856,0.0002854,0.0002856,0.0002862,0.0002864,0.0002804,0.0002822,0.0002796,0.0002828,0.0002826,0.00019474,0.00019382,0.00019326,0.00019384,0.0001935,0.00019102,0.00019022,0.00019118,0.00019062,0.00019028,0.01184,0.01184,0.011864,0.011852,0.01184,0.011632,0.011644,0.011636,0.011636,0.011648
580,0.0058,0.005802,0.005794,0.00581,0.0058,0.005626,0.00562,0.005614,0.00562,0.005622,0.0003142,0.0003146,0.0003142,0.0003156,0.0003156,0.0003088,0.0003106,0.0003066,0.0003104,0.0003096,0.0002022,0.0002018,0.0002016,0.000202,0.0002008,0.00019848,0.0001976,0.00019886,0.00019756,0.00019746,0.01228,0.012276,0.0123,0.012292,0.012274,0.012098,0.012106,0.0121,0.0121,0.01211
582,0.007054,0.007054,0.007046,0.007064,0.007052,0.006874,0.006868,0.00686,0.006866,0.006868,0.0003774,0.000377,0.0003778,0.00038,0.0003786,0.0003668,0.000368,0.0003652,0.000368,0.0003668,0.0002204,0.0002194,0.0002198,0.00022,0.0002186,0.000215,0.000214,0.0002148,0.0002138,0.0002136,0.012472,0.01247,0.01249,0.012486,0.012464,0.012316,0.01232,0.012318,0.012312,0.012322
584,0.008156,0.008158,0.008148,0.008168,0.008156,0.007982,0.007976,0.007968,0.007974,0.007978,0.0005304,0.0005316,0.0005294,0.0005328,0.0005326,0.0005086,0.000509,0.000506,0.000511,0.0005078,0.0002594,0.0002588,0.0002584,0.0002584,0.0002578,0.000251,0.0002504,0.0002512,0.0002496,0.0002492,0.012486,0.012484,0.012498,0.0125,0.012472,0.01235,0.01235,0.012354,0.012342,0.012356
586,0.009106,0.009106,0.009098,0.009118,0.009106,0.00895,0.008944,0.008936,0.00894,0.008946,0.0008742,0.0008766,0.0008754,0.0008774,0.0008752,0.000835,0.0008358,0.0008326,0.0008368,0.000837,0.0003436,0.0003424,0.0003424,0.000343,0.0003416,0.0003304,0.0003292,0.00033,0.0003292,0.0003292,0.012326,0.01232,0.012332,0.012336,0.012304,0.012208,0.012204,0.012214,0.0122,0.012208
588,0.009624,0.009626,0.00962,0.00964,0.00963,0.0095,0.009494,0.009488,0.009492,0.009498,0.0012778,0.0012792,0.0012782,0.0012812,0.0012786,0.0012318,0.0012326,0.001229,0.0012316,0.0012316,0.0004606,0.0004594,0.0004596,0.0004602,0.0004588,0.000442,0.0004418,0.0004422,0.0004414,0.0004412,0.012104,0.012098,0.01211,0.012116,0.012082,0.012006,0.011998,0.01201,0.011994,0.012002
590,0.009688,0.009684,0.009688,0.009702,0.009696,0.009612,0.009608,0.009602,0.009602,0.009612,0.0016312,0.0016338,0.0016328,0.0016352,0.0016336,0.0015914,0.0015922,0.0015886,0.0015926,0.0015914,0.000616,0.0006146,0.0006152,0.0006144,0.000613,0.0005922,0.0005912,0.0005916,0.0005912,0.0005904,0.011808,0.0118,0.01181,0.01182,0.011784,0.011722,0.011714,0.011726,0.011708,0.011718
592,0.009136,0.009126,0.009138,0.009148,0.009148,0.009128,0.009126,0.009122,0.009118,0.009132,0.0018528,0.0018562,0.0018556,0.001859,0.0018564,0.0018262,0.001826,0.0018222,0.0018266,0.0018256,0.0008162,0.0008144,0.000815,0.0008138,0.0008132,0.000786,0.0007852,0.0007856,0.000785,0.0007852,0.011452,0.011444,0.011452,0.011462,0.011428,0.011376,0.01137,0.01138,0.011366,0.011372
594,0.007958,0.007944,0.00796,0.007964,0.00797,0.00802,0.00802,0.008016,0.00801,0.008026,0.0019514,0.0019542,0.0019536,0.001956,0.001954,0.0019328,0.0019328,0.0019296,0.0019342,0.001932,0.001063,0.0010608,0.0010614,0.00106,0.0010594,0.0010268,0.001026,0.0010258,0.0010256,0.0010252,0.01104,0.011036,0.011042,0.011052,0.01102,0.010978,0.010972,0.01098,0.010966,0.010972
596,0.006196,0.006186,0.0062,0.006196,0.006208,0.0063,0.006306,0.0063,0.006294,0.006306,0.0019576,0.0019614,0.001958,0.001962,0.0019604,0.001947,0.0019488,0.0019442,0.0019492,0.001945,0.001378,0.0013766,0.0013768,0.0013752,0.001375,0.0013356,0.0013348,0.0013356,0.0013346,0.0013348,0.01052,0.010514,0.01052,0.010526,0.0105,0.010466,0.01046,0.010468,0.010458,0.010462
598,0.004562,0.004554,0.004566,0.004564,0.004574,0.004668,0.00467,0.00467,0.004666,0.004674,0.0018826,0.0018864,0.0018848,0.0018892,0.0018872,0.0018826,0.001882,0.0018784,0.0018824,0.0018786,0.0016972,0.0016958,0.0016958,0.001694,0.0016946,0.00165,0.0016488,0.0016492,0.0016488,0.0016486,0.010022,0.010014,0.01002,0.010028,0.010002,0.009974,0.009968,0.009976,0.009966,0.009968
600,0.003206,0.003202,0.00321,0.003208,0.003214,0.003294,0.003296,0.003296,0.003294,0.003298,0.0016984,0.0017,0.0016998,0.001703,0.0017012,0.0017098,0.0017096,0.0017066,0.0017102,0.0017078,0.002016,0.002014,0.002014,0.002012,0.002014,0.0019658,0.0019646,0.0019658,0.0019644,0.001965,0.009536,0.009528,0.009532,0.009538,0.009514,0.009488,0.009488,0.009494,0.009486,0.009486
602,0.00212,0.002116,0.002124,0.00212,0.002126,0.002194,0.002196,0.002196,0.002194,0.002196,0.0013954,0.001397,0.0013956,0.001397,0.0013984,0.0014152,0.0014162,0.0014138,0.0014172,0.0014142,0.002324,0.00232,0.002324,0.00232,0.002322,0.002274,0.002272,0.002274,0.002272,0.002272,0.009052,0.009046,0.00905,0.009056,0.009032,0.009014,0.009012,0.009018,0.00901,0.00901
604,0.0012598,0.0012556,0.0012628,0.0012608,0.0012634,0.0013184,0.0013194,0.0013206,0.0013198,0.0013204,0.0010914,0.0010946,0.0010916,0.0010934,0.0010938,0.0011054,0.001104,0.0011032,0.0011072,0.0011046,0.002616,0.002612,0.002614,0.00261,0.002612,0.002564,0.002564,0.002564,0.002564,0.002566,0.008568,0.00856,0.008564,0.008572,0.008548,0.00854,0.008532,0.008538,0.008534,0.008534
606,0.0006376,0.000635,0.000639,0.0006374,0.0006378,0.0006684,0.0006674,0.00067,0.0006706,0.00067,0.0010642,0.0010672,0.0010644,0.0010658,0.0010646,0.001038,0.0010382,0.0010378,0.0010418,0.0010406,0.002874,0.00287,0.002872,0.00287,0.002872,0.002828,0.002828,0.00283,0.002828,0.002828,0.00798,0.007968,0.00797,0.00798,0.00796,0.007958,0.007956,0.007962,0.007958,0.00796
608,0.000373,0.000372,0.0003768,0.0003748,0.0003732,0.0003874,0.0003834,0.0003866,0.0003858,0.0003886,0.0015498,0.0015512,0.001549,0.0015484,0.0015466,0.0014752,0.001473,0.0014734,0.001481,0.0014776,0.00301,0.003008,0.00301,0.003006,0.00301,0.002974,0.002974,0.002976,0.002974,0.002974,0.007272,0.007266,0.007266,0.007274,0.007258,0.007278,0.007276,0.007276,0.007274,0.007274
610,0.0002976,0.000296,0.0003002,0.000298,0.0002952,0.0003028,0.000298,0.0003006,0.0003014,0.000304,0.002412,0.002416,0.002414,0.002414,0.00241,0.002302,0.002302,0.0023,0.002308,0.002306,0.00301,0.00301,0.003012,0.003008,0.003012,0.002988,0.002988,0.002988,0.002988,0.002988,0.006424,0.00642,0.006416,0.006426,0.006412,0.006452,0.006446,0.006452,0.006446,0.006448
612,0.0002748,0.0002722,0.0002764,0.0002762,0.0002732,0.000276,0.0002734,0.0002758,0.0002772,0.000279,0.00348,0.003484,0.003484,0.003482,0.003478,0.003344,0.003344,0.00334,0.003348,0.003348,0.002864,0.002864,0.002866,0.002862,0.002864,0.002856,0.002856,0.002854,0.002856,0.002856,0.005472,0.005468,0.005462,0.005476,0.005458,0.005514,0.005508,0.00551,0.005506,0.005508
614,0.0002672,0.0002636,0.0002698,0.000267,0.0002656,0.000266,0.0002618,0.0002682,0.0002648,0.0002702,0.00462,0.004622,0.004622,0.004622,0.004618,0.004464,0.004464,0.004458,0.00447,0.004466,0.002568,0.002566,0.00257,0.002566,0.002568,0.002578,0.002578,0.002574,0.002578,0.002576,0.00449,0.004486,0.00448,0.00449,0.004476,0.004536,0.004536,0.004532,0.004532,0.004532
616,0.0002644,0.0002604,0.0002664,0.000264,0.000262,0.0002622,0.0002584,0.0002632,0.0002626,0.0002654,0.005828,0.005834,0.005834,0.005834,0.00583,0.005658,0.005658,0.005654,0.00566,0.00566,0.002106,0.002106,0.002108,0.002106,0.002108,0.002132,0.00213,0.002128,0.002132,0.002128,0.00344,0.003432,0.003428,0.003438,0.003428,0.003488,0.003484,0.003486,0.003488,0.003482
618,0.000271,0.0002668,0.0002742,0.0002734,0.0002694,0.000269,0.0002674,0.0002684,0.0002688,0.0002704,0.006914,0.006918,0.00692,0.00692,0.006914,0.006734,0.006734,0.00673,0.006736,0.006734,0.0015856,0.0015848,0.001588,0.0015868,0.0015884,0.0016208,0.00162,0.001619,0.0016216,0.0016198,0.002486,0.002482,0.002478,0.002482,0.002476,0.002538,0.002534,0.002536,0.002536,0.002534
620,0.0002922,0.0002892,0.000295,0.0002938,0.0002918,0.0002888,0.000286,0.0002892,0.0002876,0.0002892,0.00782,0.007824,0.007826,0.007826,0.007822,0.00764,0.00764,0.007634,0.007642,0.007638,0.0010898,0.0010892,0.0010914,0.0010904,0.0010926,0.0011272,0.0011266,0.0011256,0.0011276,0.001126,0.001681,0.001678,0.0016694,0.0016762,0.0016734,0.0017292,0.0017274,0.0017252,0.001729,0.0017276
622,0.0003322,0.0003306,0.0003348,0.000332,0.000331,0.0003256,0.0003226,0.0003268,0.000327,0.0003252,0.008552,0.008556,0.00856,0.008558,0.008554,0.00838,0.008382,0.008374,0.008384,0.00838,0.0006926,0.0006918,0.000694,0.0006928,0.000695,0.0007184,0.0007182,0.000717,0.0007194,0.0007174,0.0010536,0.0010504,0.0010444,0.0010486,0.0010472,0.0010854,0.0010862,0.0010848,0.0010856,0.0010858
624,0.0003922,0.0003912,0.0003976,0.0003934,0.000394,0.0003826,0.0003808,0.0003844,0.0003864,0.0003852,0.009042,0.009046,0.009052,0.00905,0.009046,0.008888,0.00889,0.008884,0.008892,0.008888,0.0005158,0.0005156,0.0005168,0.000515,0.0005172,0.0005168,0.0005174,0.0005162,0.0005172,0.0005172,0.000733,0.0007306,0.0007232,0.00073,0.0007254,0.000736,0.000737,0.000737,0.0007358,0.0007396
626,0.000495,0.0004934,0.0004956,0.0004954,0.0004946,0.0004818,0.0004796,0.0004824,0.0004808,0.0004822,0.009282,0.009288,0.009294,0.009292,0.009292,0.009154,0.009154,0.009148,0.009154,0.009148,0.0006196,0.000618,0.0006198,0.0006168,0.0006194,0.000593,0.0005934,0.000593,0.000595,0.0005946,0.0007702,0.0007694,0.0007626,0.0007716,0.0007648,0.0007464,0.000748,0.0007492,0.0007438,0.0007508
628,0.0006278,0.000626,0.00063,0.000628,0.0006296,0.0006076,0.0006076,0.0006106,0.0006102,0.0006112,0.00925,0.009256,0.009266,0.009264,0.00926,0.009142,0.009142,0.009136,0.00914,0.009136,0.00091,0.0009094,0.0009108,0.0009078,0.0009098,0.0008676,0.0008674,0.0008674,0.0008684,0.0008688,0.0010452,0.0010462,0.0010392,0.001048,0.001041,0.0010038,0.0010066,0.0010104,0.0010038,0.0010106
630,0.000777,0.0007772,0.0007798,0.0007768,0.0007788,0.0007556,0.000753,0.0007556,0.0007548,0.0007572,0.009034,0.009042,0.009052,0.009048,0.009046,0.008942,0.008942,0.008936,0.008938,0.008934,0.0012796,0.0012788,0.0012806,0.0012776,0.001279,0.0012226,0.001225,0.001224,0.0012238,0.0012244,0.001412,0.0014152,0.0014106,0.0014158,0.001406,0.0013566,0.0013642,0.0013654,0.0013604,0.001368
632,0.0009448,0.0009468,0.000948,0.0009464,0.0009488,0.0009194,0.0009184,0.0009198,0.0009176,0.0009214,0.008688,0.008694,0.008706,0.008702,0.008702,0.008608,0.008606,0.0086,0.008604,0.008598,0.0017048,0.0017032,0.0017054,0.0017016,0.0017044,0.0016338,0.0016366,0.0016354,0.001635,0.001636,0.0018412,0.001845,0.0018406,0.0018486,0.0018374,0.001774,0.0017854,0.0017826,0.001777,0.0017864
634,0.0011278,0.001131,0.0011334,0.0011288,0.0011334,0.0010992,0.0010998,0.0011,0.0010988,0.001098,0.008268,0.008272,0.008284,0.008282,0.00828,0.008196,0.008194,0.008188,0.00819,0.008186,0.002162,0.002162,0.002162,0.00216,0.002162,0.00208,0.002082,0.002082,0.002082,0.002082,0.002308,0.002314,0.00231,0.002318,0.002306,0.002232,0.00224,0.002242,0.002232,0.002246
636,0.0013376,0.0013368,0.0013364,0.0013358,0.0013376,0.0013028,0.0013026,0.001301,0.0013008,0.0013018,0.007764,0.007768,0.007776,0.007776,0.007774,0.007698,0.007696,0.00769,0.00769,0.007688,0.002668,0.002666,0.002668,0.002666,0.002668,0.002578,0.00258,0.002578,0.002578,0.00258,0.00283,0.002836,0.002832,0.002838,0.002826,0.002742,0.002756,0.002754,0.002746,0.002758
638,0.0015264,0.0015296,0.0015296,0.0015286,0.0015276,0.00149,0.0014942,0.001489,0.001489,0.0014904,0.007304,0.007306,0.007316,0.007316,0.007312,0.007236,0.007236,0.00723,0.00723,0.007228,0.003108,0.003106,0.003108,0.003106,0.003108,0.003014,0.003018,0.003016,0.003014,0.003016,0.003274,0.00328,0.003278,0.003286,0.00327,0.003188,0.003196,0.003196,0.00319,0.0032
640,0.0017036,0.0017116,0.0017064,0.0017036,0.0017082,0.0016692,0.0016688,0.0016652,0.0016644,0.0016664,0.006904,0.006906,0.006916,0.006912,0.006912,0.006834,0.006834,0.006826,0.006826,0.006822,0.003466,0.003464,0.003468,0.003464,0.003466,0.003374,0.003378,0.003376,0.003374,0.003376,0.003608,0.003618,0.003614,0.003624,0.003608,0.003526,0.003534,0.003536,0.00353,0.003538
642,0.0018666,0.0018708,0.0018674,0.0018688,0.0018712,0.001828,0.0018306,0.0018228,0.001824,0.001826,0.006538,0.006538,0.006546,0.006544,0.006544,0.006464,0.006466,0.006456,0.006456,0.006456,0.003726,0.003726,0.003728,0.003726,0.003726,0.00364,0.003642,0.003642,0.00364,0.00364,0.003816,0.003826,0.003822,0.003832,0.003812,0.003734,0.003748,0.00375,0.003744,0.003752
644,0.00202,0.002024,0.002022,0.002022,0.002024,0.0019756,0.0019822,0.0019732,0.0019734,0.0019764,0.00621,0.006212,0.006216,0.006218,0.006214,0.006134,0.006134,0.006128,0.006128,0.006126,0.003898,0.003896,0.0039,0.003898,0.003898,0.003814,0.003818,0.003818,0.003816,0.003816,0.003916,0.003926,0.003922,0.003932,0.003908,0.003842,0.003856,0.003858,0.003848,0.003858
646,0.002186,0.002188,0.002184,0.002186,0.00219,0.002138,0.002142,0.002132,0.002134,0.002134,0.005874,0.005878,0.00588,0.005882,0.00588,0.0058,0.005796,0.005792,0.005792,0.005792,0.00395,0.00395,0.003952,0.003952,0.00395,0.003878,0.00388,0.00388,0.003878,0.003878,0.003886,0.003896,0.003896,0.003906,0.003888,0.00383,0.003834,0.00384,0.00383,0.003838
648,0.002318,0.00232,0.002314,0.00232,0.00232,0.002266,0.002274,0.002262,0.002266,0.002264,0.005614,0.005618,0.00562,0.00562,0.005618,0.005536,0.005536,0.005534,0.005534,0.005534,0.003834,0.003834,0.003834,0.003836,0.003832,0.003776,0.00378,0.003778,0.003778,0.003776,0.003696,0.003704,0.003704,0.003714,0.003696,0.003652,0.003662,0.003664,0.00365,0.003662
650,0.002426,0.002432,0.002426,0.002428,0.002426,0.00237,0.00238,0.00237,0.00237,0.00237,0.005358,0.005362,0.005362,0.005364,0.005362,0.005284,0.005282,0.00528,0.00528,0.00528,0.003544,0.003546,0.003546,0.003548,0.003546,0.003508,0.00351,0.003508,0.003508,0.003506,0.003362,0.00337,0.003366,0.003378,0.00336,0.003328,0.003336,0.00334,0.003328,0.003336
652,0.002502,0.002502,0.0025,0.0025,0.002504,0.002448,0.002454,0.002444,0.002444,0.002446,0.005082,0.005082,0.005084,0.005088,0.005084,0.005008,0.005006,0.005004,0.005004,0.005002,0.003138,0.00314,0.003142,0.003144,0.00314,0.003114,0.003114,0.003114,0.003114,0.003112,0.002966,0.002974,0.002974,0.002978,0.002966,0.002942,0.002946,0.002948,0.002938,0.002948
654,0.002556,0.002558,0.002548,0.002552,0.002556,0.002498,0.002504,0.002498,0.0025,0.002502,0.004806,0.004806,0.004806,0.00481,0.004806,0.004732,0.00473,0.004724,0.00473,0.004728,0.00274,0.002742,0.002742,0.002744,0.00274,0.002716,0.002716,0.002716,0.002718,0.002716,0.002624,0.002632,0.002634,0.002634,0.002624,0.002596,0.002596,0.002604,0.002596,0.002598
656,0.002608,0.002614,0.002604,0.00261,0.00261,0.002552,0.002558,0.002548,0.002554,0.002548,0.004538,0.004536,0.004538,0.004542,0.004536,0.004466,0.004466,0.004462,0.004464,0.00446,0.00241,0.002414,0.002414,0.002414,0.002412,0.002386,0.002384,0.002386,0.002386,0.002384,0.002354,0.002358,0.002364,0.002368,0.002358,0.002326,0.002324,0.00233,0.00233,0.002334
658,0.00265,0.002654,0.002648,0.002652,0.002654,0.002596,0.002598,0.00259,0.002596,0.00259,0.004334,0.004334,0.004334,0.004338,0.004332,0.004266,0.004266,0.004258,0.004258,0.00426,0.002174,0.002174,0.002176,0.002176,0.002172,0.002152,0.00215,0.002152,0.002152,0.002152,0.002146,0.002144,0.002156,0.002162,0.002148,0.002122,0.002128,0.00213,0.002124,0.002126
660,0.002684,0.002686,0.00268,0.002684,0.002688,0.002628,0.00263,0.002624,0.002628,0.002626,0.004152,0.004152,0.004152,0.004154,0.004152,0.004084,0.004084,0.004078,0.004078,0.00408,0.0019162,0.0019168,0.0019178,0.001919,0.0019166,0.0019042,0.001903,0.0019054,0.001905,0.001904,0.0018996,0.0019002,0.0019156,0.0019176,0.0019026,0.001889,0.0018894,0.0018932,0.0018854,0.0018848
662,0.002694,0.002694,0.002686,0.002694,0.002692,0.002636,0.002644,0.002634,0.00264,0.002638,0.003966,0.003966,0.003962,0.00397,0.003966,0.0039,0.003902,0.003898,0.003898,0.0039,0.0016536,0.0016528,0.001654,0.0016546,0.001652,0.0016448,0.001644,0.0016458,0.001644,0.0016438,0.001652,0.00165,0.0016582,0.0016578,0.0016502,0.001643,0.0016388,0.001642,0.0016368,0.0016336
664,0.002628,0.00263,0.002624,0.00263,0.002628,0.002582,0.00259,0.002584,0.002586,0.002582,0.003714,0.003716,0.003712,0.003716,0.003716,0.003664,0.003664,0.003662,0.00366,0.00366,0.0014504,0.0014512,0.001452,0.001452,0.0014498,0.0014364,0.0014362,0.0014382,0.0014384,0.0014372,0.001462,0.0014532,0.0014716,0.001468,0.0014638,0.0014488,0.0014484,0.0014492,0.0014472,0.0014416
666,0.00245,0.002456,0.002452,0.002458,0.002456,0.002422,0.002428,0.00242,0.002428,0.002418,0.003364,0.003364,0.00336,0.003366,0.003362,0.003328,0.003324,0.003324,0.003324,0.003324,0.0013284,0.0013308,0.0013302,0.00133,0.0013286,0.0013132,0.0013132,0.0013142,0.0013134,0.0013128,0.0013516,0.0013452,0.0013564,0.0013552,0.0013492,0.001338,0.0013342,0.001337,0.0013348,0.0013286
668,0.002232,0.002234,0.00223,0.002238,0.002238,0.00221,0.002216,0.00221,0.002214,0.00221,0.002988,0.002986,0.002984,0.00299,0.002986,0.00296,0.002956,0.002956,0.002958,0.002956,0.0011918,0.001193,0.001193,0.0011936,0.0011914,0.0011852,0.0011848,0.0011854,0.0011852,0.0011844,0.0012122,0.0012006,0.001213,0.0012152,0.001208,0.0012064,0.0012028,0.0012044,0.0012056,0.0012016
670,0.002028,0.002028,0.00203,0.002034,0.002032,0.002008,0.00201,0.002004,0.00201,0.002006,0.00264,0.002638,0.002638,0.002642,0.002644,0.002616,0.002612,0.002614,0.002616,0.002614,0.0009544,0.0009544,0.0009554,0.0009562,0.000952,0.0009622,0.0009614,0.000962,0.0009636,0.0009624,0.0009694,0.0009584,0.0009738,0.000973,0.0009678,0.0009784,0.0009704,0.0009746,0.000975,0.000966
672,0.0018748,0.0018726,0.0018752,0.0018792,0.001873,0.0018476,0.0018478,0.0018404,0.0018544,0.001847,0.002368,0.002366,0.002362,0.00237,0.002366,0.002342,0.002338,0.002338,0.002338,0.002336,0.0006428,0.0006418,0.000643,0.0006444,0.0006412,0.0006594,0.0006586,0.0006606,0.0006618,0.0006594,0.000655,0.000652,0.0006592,0.0006626,0.0006602,0.0006792,0.000663,0.0006644,0.0006712,0.0006602
674,0.0017338,0.001728,0.0017316,0.0017368,0.0017326,0.0017092,0.0017088,0.0017062,0.0017132,0.001706,0.002122,0.002122,0.002116,0.00212,0.002122,0.002096,0.002096,0.002096,0.002092,0.002096,0.0003418,0.0003418,0.0003414,0.0003434,0.0003402,0.0003556,0.000354,0.0003554,0.0003554,0.0003554,0.0003592,0.0003502,0.0003594,0.0003596,0.0003588,0.0003716,0.0003612,0.0003682,0.0003706,0.0003604
676,0.0015708,0.001572,0.0015742,0.0015758,0.0015696,0.0015542,0.0015568,0.001553,0.001563,0.0015512,0.0018838,0.001884,0.0018812,0.001884,0.0018856,0.0018676,0.001867,0.0018672,0.001862,0.0018652,0.00019798,0.00019738,0.00019634,0.00019694,0.00019438,0.00019994,0.0002004,0.0002002,0.0002016,0.0002016,0.0002178,0.0002084,0.000219,0.0002214,0.0002198,0.0002274,0.0002182,0.0002208,0.0002244,0.0002114
678,0.0013858,0.0013842,0.0013894,0.0013916,0.0013814,0.0013752,0.001373,0.001374,0.00138,0.001366,0.001632,0.0016324,0.0016304,0.0016352,0.0016352,0.0016228,0.0016228,0.0016242,0.0016204,0.0016184,0.00014672,0.00014526,0.00014514,0.00014456,0.00014352,0.00014292,0.00014356,0.00014352,0.00014498,0.00014476,0.000169,0.0001618,0.00016802,0.00016734,0.00017224,0.00017372,0.00015994,0.00016226,0.0001707,0.0001587
680,0.001229,0.0012258,0.0012346,0.0012338,0.0012262,0.0012198,0.0012162,0.0012184,0.0012236,0.001212,0.001427,0.0014258,0.0014276,0.0014294,0.0014298,0.0014166,0.0014166,0.0014166,0.0014156,0.001412,0.00013014,0.0001289,0.0001284,0.00012784,0.00012682,0.00012482,0.00012552,0.0001257,0.0001274,0.0001261,0.00015518,0.00014508,0.00015032,0.00015526,0.00016168,0.00015646,0.00014464,0.00014878,0.00015716,0.00014504
682,0.001143,0.0011434,0.001143,0.00115,0.0011436,0.001121,0.0011244,0.0011264,0.001131,0.001118,0.001311,0.0013112,0.001315,0.001317,0.0013128,0.0012948,0.0012984,0.0012994,0.0012944,0.0012962,0.00012452,0.00012294,0.00012382,0.00012248,0.00012008,0.0001185,0.00012024,0.00012002,0.00012272,0.0001213,0.00015454,0.00013876,0.00014552,0.00014772,0.00015674,0.00015762,0.0001365,0.0001462,0.00014864,0.00014012
684,0.0010582,0.0010518,0.0010588,0.0010646,0.001058,0.0010458,0.0010418,0.0010444,0.0010542,0.0010422,0.0012072,0.0012086,0.0012104,0.001212,0.0012124,0.0011972,0.0012032,0.0011992,0.0011998,0.0011972,0.00012058,0.00011866,0.0001197,0.00011988,0.00011704,0.0001165,0.0001175,0.00011596,0.00011746,0.0001172,0.0001546,0.00014134,0.00013724,0.00014494,0.00015238,0.00015248,0.0001426,0.00013952,0.00014906,0.00013608
686,0.0008954,0.0008912,0.0008978,0.0008986,0.0008958,0.0008968,0.0008914,0.0008984,0.0008992,0.0008914,0.0010244,0.0010288,0.0010278,0.0010282,0.0010282,0.0010244,0.0010288,0.0010292,0.001029,0.001028,0.00011598,0.00011384,0.00011522,0.0001136,0.00011216,0.00010994,0.0001111,0.00011092,0.00011296,0.00011414,0.00014994,0.00013308,0.00013904,0.00014104,0.00014904,0.00015034,0.0001363,0.0001374,0.00014362,0.00013392
688,0.000652,0.0006494,0.0006562,0.0006604,0.0006516,0.0006642,0.0006634,0.000669,0.0006678,0.0006608,0.0007562,0.0007574,0.0007586,0.0007602,0.0007582,0.0007694,0.0007668,0.0007702,0.0007698,0.0007678,0.00010984,0.00010656,0.00010862,0.00010806,0.00010698,0.00010456,0.00010602,0.00010572,0.0001071,0.00010666,0.00014546,0.00013096,0.00013316,0.00013238,0.0001439,0.00014322,0.00013548,0.00013266,0.00014522,0.00013134
690,0.0004094,0.0003982,0.0004112,0.0004166,0.0004026,0.0004282,0.0004196,0.0004204,0.0004266,0.0004144,0.0004784,0.0004762,0.000479,0.0004804,0.0004804,0.0004946,0.0004948,0.000494,0.0004944,0.0004944,0.00010366,0.0001012,0.00010326,0.00010012,0.0001004,9.878e-05,0.00010142,9.968e-05,0.00010166,9.956e-05,0.00014324,0.00013238,0.0001295,0.0001277,0.0001421,0.00013922,0.0001305,0.00012658,0.00014198,0.00012666
692,0.000227,0.0002196,0.0002276,0.0002298,0.0002258,0.0002332,0.0002304,0.0002312,0.0002342,0.000233,0.0002692,0.000272,0.0002752,0.000277,0.000272,0.000279,0.00028,0.0002834,0.0002832,0.0002796,9.826e-05,9.456e-05,9.624e-05,9.38e-05,9.574e-05,9.276e-05,9.42e-05,9.474e-05,9.514e-05,9.56e-05,0.0001418,0.00013228,0.00012922,0.00012806,0.00013326,0.00013962,0.00013448,0.00012666,0.00014024,0.000129
694,0.0001482,0.00014452,0.000157,0.00015872,0.00014966,0.0001524,0.00015204,0.00015082,0.00015416,0.00014806,0.0001849,0.00018496,0.00018626,0.00018758,0.00018786,0.00018978,0.0001896,0.00019344,0.0001924,0.00018564,9.38e-05,8.952e-05,9.07e-05,8.872e-05,9.1e-05,8.648e-05,8.946e-05,8.822e-05,9.082e-05,8.914e-05,0.00013984,0.00012792,0.00012584,0.0001225,0.00012808,0.00013996,0.00012264,0.00012616,0.00013444,0.00012288
696,0.00012436,0.00012048,0.00013154,0.00013152,0.00012124,0.00012558,0.00012436,0.00012516,0.0001284,0.00011958,0.00015362,0.00015544,0.000162,0.00015952,0.00015778,0.00015494,0.000158,0.00015584,0.00016076,0.00015566,8.776e-05,8.442e-05,8.674e-05,8.492e-05,8.422e-05,8.316e-05,8.574e-05,8.36e-05,8.746e-05,8.446e-05,0.00014002,0.00012812,0.00012136,0.00012238,0.00012498,0.00013576,0.00012386,0.00011768,0.0001271,0.00011816
698,0.0001161,0.00010756,0.00011552,0.00011914,0.00011262,0.00011704,0.00011318,0.00011704,0.00011814,0.00011434,0.00013938,0.00014146,0.00014756,0.0001446,0.00014572,0.00014002,0.00013938,0.00014146,0.0001467,0.00014094,8.214e-05,7.942e-05,8.096e-05,7.936e-05,7.974e-05,7.842e-05,8.112e-05,7.998e-05,8.214e-05,7.926e-05,0.00013528,0.0001247,0.00012028,0.00011864,0.00012092,0.00013076,0.00012286,0.00012102,0.00012294,0.0001154
700,0.00010488,9.52e-05,0.0001129,0.00011168,0.0001037,0.00011166,0.00011838,0.00011302,0.00011076,0.00010848,0.00012942,0.0001328,0.00013646,0.00013426,0.00013414,0.0001296,0.00013334,0.00013296,0.00013266,0.0001283,7.82e-05,7.444e-05,7.526e-05,7.406e-05,7.59e-05,7.38e-05,7.626e-05,7.648e-05,7.562e-05,7.634e-05,0.00013026,0.0001216,0.0001216,0.00011434,0.0001173,0.00012836,0.00011688,0.00011676,0.00012636,0.00011668
702,0.00010366,9.264e-05,0.0001106,0.0001032,0.00010296,0.00010674,0.00010464,0.00010234,9.956e-05,0.00010334,0.00011958,0.00012096,0.0001263,0.00012706,0.00012524,0.00012154,0.00012204,0.00012334,0.00012344,0.00011704,7.248e-05,6.856e-05,6.986e-05,6.956e-05,6.864e-05,6.748e-05,7.04e-05,6.994e-05,7.218e-05,7.038e-05,0.00012276,0.00011596,0.00011378,0.00011244,0.00011962,0.00012128,0.00011222,0.00011422,0.00012124,0.0001122
704,9.502e-05,9.258e-05,0.00010014,9.758e-05,0.0001002,0.0001003,0.00010036,9.848e-05,9.19e-05,9.894e-05,0.00011432,0.00011422,0.00012008,0.00011892,0.00012016,0.000113,0.00011476,0.0001157,0.0001188,0.000111,6.744e-05,6.256e-05,6.346e-05,6.512e-05,6.476e-05,6.384e-05,6.476e-05,6.568e-05,6.62e-05,6.458e-05,0.00011794,0.00011784,0.0001126,0.00010692,0.00011284,0.00011362,0.00011358,0.00011186,0.00011244,0.00010652
706,8.638e-05,8.908e-05,9.322e-05,9.476e-05,9.272e-05,9.698e-05,9.656e-05,9.202e-05,8.74e-05,9.19e-05,0.00010436,0.00010792,0.00011674,0.00010948,0.00011442,0.00010292,0.00010842,0.00010894,0.00011214,0.00010494,6.13e-05,5.88e-05,6.09e-05,6.008e-05,6.054e-05,5.872e-05,6.138e-05,6.078e-05,6.218e-05,6.192e-05,0.00011618,0.00011672,0.000112,0.00010136,0.00010458,0.00011308,0.00010954,0.00011194,0.00010912,0.0001086
708,8.68e-05,8.332e-05,9.564e-05,8.92e-05,8.928e-05,9.212e-05,8.816e-05,9.474e-05,8.752e-05,8.624e-05,9.9e-05,0.00010298,0.00011642,0.00010182,0.00011158,0.00010212,0.00010786,0.0001053,0.0001092,0.00010152,5.702e-05,5.606e-05,5.768e-05,5.634e-05,5.654e-05,5.544e-05,5.714e-05,5.88e-05,5.81e-05,5.996e-05,0.00011172,0.00011122,0.00011102,0.00010398,0.000103,0.00010516,0.00010614,0.00010154,9.918e-05,0.00010766
710,8.264e-05,7.6e-05,9.088e-05,8.136e-05,8.126e-05,8.514e-05,9.358e-05,8.286e-05,7.906e-05,9.416e-05,0.000103,9.956e-05,0.00011146,9.746e-05,0.00011076,9.438e-05,9.808e-05,9.908e-05,0.00010608,9.462e-05,5.18e-05,5.238e-05,5.13e-05,5.4e-05,5.44e-05,5.082e-05,5.414e-05,5.476e-05,5.334e-05,5.508e-05,0.00010546,0.00011292,0.0001084,9.904e-05,9.66e-05,8.752e-05,0.000104,0.00010218,0.00010138,0.00010636
712,7.83e-05,7.5e-05,8.77e-05,7.918e-05,8.218e-05,8.57e-05,8.796e-05,7.952e-05,7.956e-05,8.86e-05,9.656e-05,9.34e-05,0.00010964,9.16e-05,0.00010198,9.056e-05,9.558e-05,9.724e-05,9.98e-05,9.114e-05,5.018e-05,4.942e-05,4.93e-05,5.102e-05,5.11e-05,5.068e-05,4.948e-05,5.064e-05,5.124e-05,5.268e-05,0.00010384,0.00011198,0.00010644,9.912e-05,9.138e-05,9.362e-05,0.00010802,0.0001089,0.00010128,0.0001012
714,7.912e-05,7.322e-05,8.046e-05,8.084e-05,7.966e-05,8.656e-05,8.312e-05,8.372e-05,7.346e-05,8.554e-05,9.352e-05,9.198e-05,0.00010764,9.002e-05,0.00010046,8.902e-05,9.43e-05,9.398e-05,9.628e-05,8.838e-05,4.73e-05,4.714e-05,4.576e-05,4.852e-05,4.918e-05,4.762e-05,4.662e-05,4.788e-05,4.972e-05,4.842e-05,0.00010186,0.00010916,0.00010156,9.556e-05,9.39e-05,9.596e-05,0.00010856,0.0001085,0.00010186,0.0001015
716,7.11e-05,7.676e-05,7.418e-05,7.602e-05,7.802e-05,8.02e-05,8.202e-05,7.924e-05,6.938e-05,8.65e-05,9.316e-05,8.918e-05,0.00010158,8.476e-05,9.81e-05,8.798e-05,8.948e-05,9.326e-05,9.266e-05,8.416e-05,4.268e-05,4.444e-05,4.364e-05,4.518e-05,4.762e-05,4.424e-05,4.688e-05,4.482e-05,4.464e-05,4.522e-05,0.00010022,0.00010454,0.00010084,9.408e-05,8.784e-05,8.936e-05,0.00010424,0.00010036,9.83e-05,9.734e-05
718,7.014e-05,7.168e-05,6.882e-05,6.32e-05,6.658e-05,7.328e-05,7.894e-05,7.22e-05,5.648e-05,7.99e-05,8.818e-05,8.79e-05,9.284e-05,7.746e-05,9.25e-05,8.084e-05,8.756e-05,8.168e-05,8.89e-05,8.37e-05,4.076e-05,4.374e-05,4.22e-05,4.288e-05,4.438e-05,4.216e-05,4.326e-05,4.146e-05,4.068e-05,4.228e-05,9.902e-05,0.00010298,0.00010086,9.634e-05,9.07e-05,8.054e-05,9.336e-05,9.646e-05,9.588e-05,9.392e-05
720,6.15e-05,6.494e-05,7.06e-05,6.348e-05,6.802e-05,7.512e-05,7.298e-05,6.118e-05,5.732e-05,7.942e-05,8.186e-05,8.234e-05,9.116e-05,7.524e-05,8.154e-05,7.66e-05,8.296e-05,7.812e-05,8.082e-05,7.774e-05,3.674e-05,4.032e-05,3.848e-05,3.91e-05,4.268e-05,3.836e-05,3.844e-05,4.104e-05,4.038e-05,4.022e-05,9.284e-05,9.456e-05,9.706e-05,8.89e-05,8.082e-05,7.908e-05,0.00010456,8.47e-05,8.6e-05,8.362e-05
722,5.656e-05,6.636e-05,6.31e-05,6.404e-05,5.894e-05,6.912e-05,7.128e-05,5.784e-05,5.066e-05,7.078e-05,7.85e-05,7.652e-05,8.462e-05,7.006e-05,7.9e-05,7.408e-05,7.694e-05,7.618e-05,7.962e-05,7.786e-05,3.428e-05,3.812e-05,3.806e-05,3.81e-05,4.196e-05,3.758e-05,3.942e-05,4.108e-05,3.85e-05,3.83e-05,8.64e-05,9.04e-05,9.242e-05,9.602e-05,8.308e-05,6.578e-05,9.524e-05,8.724e-05,8.25e-05,8.34e-05
724,5.254e-05,6.174e-05,5.94e-05,6.086e-05,5.9e-05,6.674e-05,6.642e-05,5.082e-05,5.136e-05,6.982e-05,7.214e-05,7.564e-05,7.482e-05,6.334e-05,7.8e-05,6.57e-05,7.454e-05,7.344e-05,7.518e-05,7.49e-05,3.378e-05,3.806e-05,3.646e-05,3.684e-05,3.834e-05,3.772e-05,3.92e-05,3.596e-05,3.64e-05,3.652e-05,8.28e-05,9.058e-05,8.716e-05,7.964e-05,7.852e-05,6.188e-05,8.894e-05,8.402e-05,8.324e-05,8.168e-05
726,5.064e-05,6.012e-05,5.11e-05,5.11e-05,4.906e-05,6.696e-05,5.66e-05,4.416e-05,4.2e-05,7.056e-05,6.772e-05,7.51e-05,7.092e-05,6.252e-05,7.446e-05,5.954e-05,7.502e-05,6.596e-05,7.124e-05,7.68e-05,3.054e-05,3.6e-05,3.496e-05,3.87e-05,3.996e-05,3.916e-05,3.738e-05,3.63e-05,3.488e-05,3.574e-05,8.632e-05,7.94e-05,8.376e-05,7.38e-05,7.242e-05,6.348e-05,8.058e-05,8.302e-05,7.212e-05,7.164e-05
728,4.994e-05,5.44e-05,4.612e-05,4.768e-05,4.24e-05,5.518e-05,4.84e-05,4.518e-05,3.602e-05,5.972e-05,7.35e-05,7.13e-05,6.998e-05,5.808e-05,6.606e-05,5.762e-05,6.464e-05,5.762e-05,6.384e-05,7.684e-05,3.038e-05,3.816e-05,3.346e-05,3.752e-05,3.828e-05,3.608e-05,3.502e-05,3.812e-05,3.608e-05,3.604e-05,8.496e-05,7.458e-05,8.288e-05,6.78e-05,6.032e-05,6.434e-05,8.398e-05,7.34e-05,6.954e-05,6.098e-05
730,4.906e-05,5.516e-05,4.85e-05,4.762e-05,4.362e-05,5.536e-05,4.996e-05,4.608e-05,4.33e-05,5.996e-05,6.89e-05,7.206e-05,6.148e-05,5.99e-05,6.968e-05,5.742e-05,5.948e-05,5.822e-05,6.2e-05,7.656e-05,2.892e-05,3.71e-05,3.432e-05,3.692e-05,3.868e-05,3.428e-05,3.448e-05,3.564e-05,3.328e-05,3.6e-05,7.22e-05,7.024e-05,8.682e-05,7.604e-05,5.494e-05,5.376e-05,7.52e-05,8.44e-05,6.998e-05,5.506e-05
732,4.91e-05,5.854e-05,3.982e-05,4.914e-05,3.32e-05,5.636e-05,4.924e-05,4.282e-05,4e-05,5.162e-05,6.214e-05,6.844e-05,5.87e-05,5.108e-05,6.714e-05,5.084e-05,6.806e-05,5.408e-05,6.16e-05,7.06e-05,2.836e-05,3.604e-05,3.144e-05,3.36e-05,3.87e-05,3.566e-05,3.38e-05,3.366e-05,3.41e-05,3.534e-05,7.034e-05,6.316e-05,8.548e-05,7.44e-05,6.4e-05,5.136e-05,6.93e-05,8.2e-05,7.334e-05,5.376e-05
734,4.476e-05,5.73e-05,3.518e-05,4.5e-05,2.94e-05,5.298e-05,4.274e-05,3.4e-05,3.576e-05,5.226e-05,6.29e-05,6.65e-05,5.486e-05,4.932e-05,6.528e-05,5.458e-05,6.548e-05,5.386e-05,5.384e-05,7.164e-05,2.746e-05,3.816e-05,3.128e-05,3.388e-05,3.59e-05,3.352e-05,3.052e-05,3.484e-05,3.332e-05,3.342e-05,6.804e-05,5.464e-05,7.274e-05,7.458e-05,6.068e-05,4.822e-05,7.104e-05,6.632e-05,6.428e-05,5.188e-05
736,4.256e-05,5.026e-05,2.796e-05,3.5e-05,2.158e-05,4.844e-05,4.192e-05,2.89e-05,2.952e-05,4.754e-05,6.112e-05,5.878e-05,5.402e-05,4.966e-05,5.868e-05,5.588e-05,6.78e-05,4.506e-05,5.844e-05,7e-05,2.408e-05,3.466e-05,2.67e-05,2.948e-05,3.46e-05,3.31e-05,3.094e-05,3.364e-05,2.872e-05,2.996e-05,5.406e-05,4.034e-05,6.964e-05,6.046e-05,4.982e-05,4.846e-05,6.174e-05,5.798e-05,5.824e-05,5.67e-05
738,3.648e-05,4.66e-05,1.8246e-05,2.69e-05,1.5818e-05,3.618e-05,3.482e-05,2.422e-05,3.04e-05,3.712e-05,5.67e-05,5.666e-05,5.062e-05,4.13e-05,4.898e-05,5.134e-05,6.62e-05,4.776e-05,5.496e-05,6.09e-05,2.24e-05,2.902e-05,2.446e-05,2.89e-05,3.092e-05,2.964e-05,2.616e-05,2.748e-05,2.594e-05,2.596e-05,4.968e-05,3.358e-05,5.826e-05,5.734e-05,4.906e-05,3.854e-05,4.688e-05,5.094e-05,4.774e-05,3.858e-05
740,3.98e-05,4.26e-05,1.8234e-05,2.164e-05,1.1688e-05,3.392e-05,2.162e-05,2.19e-05,2.794e-05,4.314e-05,5.418e-05,5.06e-05,4.232e-05,4.052e-05,4.75e-05,4.602e-05,5.22e-05,4.644e-05,5.084e-05,6.406e-05,2.044e-05,2.84e-05,2.342e-05,2.452e-05,2.752e-05,2.86e-05,2.33e-05,2.586e-05,2.592e-05,2.386e-05,5.29e-05,3.002e-05,4.486e-05,5.256e-05,4.154e-05,2.732e-05,4.152e-05,4.208e-05,4.21e-05,3.55e-05
742,2.374e-05,3.96e-05,1.0448e-05,2.626e-05,1.1044e-05,3.574e-05,2.65e-05,1.3242e-05,2.012e-05,2.272e-05,5.5e-05,4.928e-05,4.316e-05,4.054e-05,4.264e-05,4.612e-05,5.424e-05,4.668e-05,4.346e-05,6.208e-05,1.813e-05,2.866e-05,1.982e-05,2.352e-05,2.44e-05,2.754e-05,2.01e-05,2.092e-05,2.318e-05,1.8932e-05,4.826e-05,2.31e-05,4.452e-05,5.18e-05,5.024e-05,2.54e-05,3.208e-05,4.094e-05,3.408e-05,3.66e-05
744,3.3e-05,3.206e-05,2.594e-06,1.9916e-05,5.02e-06,2.598e-05,1.787e-05,1.2564e-05,1.3732e-05,1.4818e-05,5.794e-05,5.486e-05,3.012e-05,4.124e-05,3.594e-05,4.7e-05,6.286e-05,4.856e-05,4.25e-05,5.474e-05,1.746e-05,2.436e-05,2.408e-05,2.342e-05,2.544e-05,2.804e-05,1.5674e-05,2.478e-05,2.166e-05,1.5688e-05,3.72e-05,1.7738e-05,4.406e-05,4.788e-05,4.936e-05,5.762e-06,5.02e-05,3.8e-05,3.768e-05,2.672e-05
746,2.888e-05,3.182e-05,1.1844e-05,1.5028e-05,1.1538e-05,2.216e-05,1.9032e-05,8.648e-06,1.6124e-05,2.434e-05,5.534e-05,4.518e-05,3.262e-05,3.566e-05,3.638e-05,4.002e-05,5.834e-05,4.48e-05,4.286e-05,6.166e-05,1.318e-05,2.628e-05,1.9372e-05,2.224e-05,2.05e-05,2.066e-05,1.4272e-05,1.961e-05,2.128e-05,1.7026e-05,4.28e-05,1.3886e-05,4.558e-05,3.248e-05,5.266e-05,7.216e-06,3.202e-05,3.796e-05,2.892e-05,3.798e-05
748,2.604e-05,2.972e-05,4.546e-06,1.4406e-05,9.866e-06,1.4412e-05,1.4338e-05,4.444e-06,1.893e-05,1.0672e-05,5.932e-05,4.372e-05,3.82e-05,4.366e-05,3.412e-05,4.324e-05,6.31e-05,4.246e-05,4.52e-05,5.832e-05,1.6756e-05,2.528e-05,1.7922e-05,2.132e-05,2.142e-05,2.114e-05,1.7364e-05,1.7638e-05,2.054e-05,1.4404e-05,2.834e-05,1.4292e-05,4.144e-05,4.022e-05,3.784e-05,1.2854e-05,2.12e-05,3.416e-05,2.002e-05,3.304e-05
750,2.544e-05,2.61e-05,6.736e-06,9.758e-06,2.812e-06,2.026e-05,1.069e-05,1.049e-05,2.59e-05,7.872e-06,5.786e-05,4.494e-05,3.44e-05,4.648e-05,3.454e-05,5.256e-05,4.732e-05,4.598e-05,4.302e-05,5.562e-05,1.4092e-05,2.408e-05,1.7958e-05,2.28e-05,1.8612e-05,1.9944e-05,1.428e-05,2.032e-05,1.9338e-05,1.281e-05,2.608e-05,1.428e-05,2.324e-05,3.814e-05,2.692e-05,5.632e-06,9.35e-06,3.478e-05,2.238e-05,2.066e-05
752,3.36e-05,2.406e-05,1.5984e-05,9.75e-06,6.716e-07,1.5506e-05,1.2632e-06,1.5328e-05,3.396e-05,2.1e-05,5.734e-05,5.296e-05,3.692e-05,4.816e-05,4.118e-05,6.084e-05,5.844e-05,6.502e-05,4.85e-05,5.326e-05,1.6858e-05,2.276e-05,1.705e-05,2.254e-05,1.9118e-05,2.562e-05,1.0566e-05,1.759e-05,1.4676e-05,1.394e-05,2.71e-05,1.989e-05,2.364e-05,3.662e-05,4.22e-05,1.8802e-05,2.54e-05,2.432e-05,1.215e-05,2.228e-05
754,2.782e-05,2.644e-05,1.26e-05,1.0582e-05,7.61e-06,8.122e-06,0,1.2302e-05,3.102e-05,2.47e-05,5.41e-05,4.684e-05,4.042e-05,5.55e-05,4.228e-05,5.372e-05,5.494e-05,4.936e-05,5.832e-05,5.748e-05,1.7296e-05,2.326e-05,2.454e-05,2.168e-05,1.6224e-05,2.622e-05,1.2512e-05,1.9654e-05,1.5282e-05,1.6054e-05,2.334e-05,2.69e-05,1.4584e-05,4.272e-05,3.412e-05,1.9168e-05,2.256e-06,2.976e-05,1.5704e-05,2.646e-05
756,2.238e-05,1.4324e-05,1.1584e-05,5.412e-06,1.2486e-05,1.9288e-05,0,7.774e-06,3.858e-05,1.8046e-05,6.512e-05,5.284e-05,4.376e-05,5.99e-05,3.402e-05,6.354e-05,6.004e-05,4.722e-05,5.154e-05,5.604e-05,1.758e-05,2.418e-05,2.402e-05,2.084e-05,2.134e-05,2.004e-05,1.344e-05,1.8044e-05,1.8136e-05,1.8308e-05,2.32e-05,2.41e-05,1.737e-05,3.386e-05,5.402e-05,1.3982e-05,1.1084e-05,3.65e-05,1.981e-05,2.838e-05
758,2.604e-05,1.7202e-05,1.5626e-05,5.972e-06,2.606e-05,1.4166e-05,0,1.5702e-05,4.182e-05,1.6402e-05,6.222e-05,5.432e-05,4.296e-05,6.728e-05,3.846e-05,6.818e-05,6.536e-05,6.026e-05,5.344e-05,6.256e-05,1.9786e-05,2.26e-05,2.546e-05,2.332e-05,1.535e-05,2.216e-05,1.4388e-05,2.028e-05,2.168e-05,1.5354e-05,1.6656e-05,1.859e-05,1.0816e-05,2.444e-05,4.518e-05,3.024e-05,1.0744e-05,3.506e-05,3.134e-05,2.544e-05
760,2.658e-05,1.0382e-05,1.49e-05,1.917e-06,6.044e-06,1.7948e-05,5.666e-06,1.1032e-05,3.446e-05,1.9254e-06,6.012e-05,4.054e-05,4.758e-05,5.902e-05,4.038e-05,6.54e-05,7.166e-05,6.912e-05,5.144e-05,5.852e-05,2.126e-05,1.8542e-05,2.302e-05,1.9534e-05,1.476e-05,2.26e-05,1.6946e-05,8.96e-06,2.166e-05,1.2244e-05,2.402e-05,3.386e-05,2.836e-05,1.924e-05,3.602e-05,3.644e-05,1.9762e-06,1.6488e-05,3.044e-05,3.316e-05
762,9.334e-06,2.406e-05,3.026e-05,1.2912e-05,0,2.288e-05,0,6.82e-06,3.524e-05,6.266e-07,4.966e-05,4.824e-05,5.666e-05,6.65e-05,3.514e-05,7.202e-05,6.398e-05,6.822e-05,6.072e-05,6.354e-05,1.951e-05,2.628e-05,2.556e-05,2.498e-05,1.058e-05,2.398e-05,1.9166e-05,1.334e-05,1.9532e-05,1.6558e-05,2.35e-05,3.082e-05,3.254e-05,2.346e-05,4.724e-05,2.99e-05,1.3774e-05,3.23e-05,4.368e-05,4.298e-05
764,2.284e-05,2.716e-05,4.32e-05,2.324e-06,1.9694e-05,2.704e-05,0,1.641e-05,4.114e-05,2.586e-06,5.224e-05,4.286e-05,5.284e-05,7.486e-05,3.852e-05,7.918e-05,6.284e-05,6.578e-05,5.618e-05,6.8e-05,2.176e-05,2.484e-05,3.03e-05,2.724e-05,1.1926e-05,2.548e-05,1.867e-05,1.4598e-05,1.4894e-05,1.707e-05,3.17e-05,3.426e-05,3.1e-05,2e-05,5.704e-05,5.146e-05,9.334e-06,2.872e-05,3.508e-05,6.22e-05
766,1.3514e-05,2.59e-05,4.308e-05,1.9244e-06,4.422e-05,2.808e-05,1.7488e-06,1.294e-05,5.136e-05,4.46e-06,5.138e-05,5.026e-05,5.316e-05,7.394e-05,4.758e-05,8.112e-05,6.816e-05,5.854e-05,3.818e-05,7.6e-05,2.36e-05,2.596e-05,3.528e-05,2.666e-05,1.0366e-05,2.19e-05,1.9166e-05,1.5456e-05,1.4722e-05,1.5372e-05,3.91e-05,3.888e-05,3.548e-05,3.406e-05,4.536e-05,6.598e-05,4.584e-06,3.572e-05,4.266e-05,5.044e-05
768,7.346e-06,1.6874e-05,3.6e-05,1.4044e-05,2.902e-05,1.9748e-05,7.314e-06,2.736e-05,5.04e-05,1.225e-06,4.312e-05,4.962e-05,6.032e-05,8.904e-05,4.23e-05,8.414e-05,6.616e-05,6.316e-05,4.564e-05,6.682e-05,2.086e-05,2.242e-05,2.55e-05,2.458e-05,9.028e-06,2.81e-05,1.4476e-05,1.8752e-05,2.036e-05,1.3252e-05,4.678e-05,3.65e-05,4.194e-05,3.178e-05,3.992e-05,6.092e-05,3.186e-05,4.818e-05,5.064e-05,4.516e-05
770,1.847e-05,1.2718e-05,3.256e-05,6.894e-06,3.592e-05,4.414e-05,5.628e-06,2.964e-05,6.766e-05,1.1118e-05,4.658e-05,5.182e-05,5.982e-05,6.514e-05,5.662e-05,7.018e-05,6.82e-05,8.35e-05,4.978e-05,6.972e-05,2.302e-05,2.278e-05,3.404e-05,2.366e-05,6.154e-06,2.464e-05,2.18e-05,1.9126e-05,2.004e-05,9.684e-06,3.912e-05,6.786e-05,5.862e-05,3.174e-05,6.86e-05,5.944e-05,2.244e-05,3.042e-05,4.33e-05,7.476e-05
772,2.466e-05,8.968e-06,5.074e-05,4.082e-06,3.774e-05,5.09e-05,1.4338e-05,4.77e-05,7.85e-05,1.4838e-05,4.742e-05,5.156e-05,5.116e-05,8.74e-05,4.714e-05,8.13e-05,6.038e-05,7.988e-05,4.63e-05,6.654e-05,2.276e-05,2.216e-05,3.146e-05,1.6654e-05,5.406e-06,2.894e-05,2.368e-05,2.034e-05,2.086e-05,1.8704e-05,5.552e-05,7.088e-05,4.926e-05,2.424e-05,5.518e-05,8.174e-05,2.592e-05,4.124e-05,5.082e-05,5.89e-05
774,3.94e-05,2.086e-06,4.752e-05,9.946e-06,4.384e-05,4.558e-05,1.2508e-05,3.598e-05,8.7e-05,1.8288e-05,4.588e-05,5.594e-05,6.734e-05,9.89e-05,6.16e-05,8.36e-05,5.744e-05,7.984e-05,5.248e-05,5.878e-05,2.38e-05,1.8516e-05,3.864e-05,2.318e-05,9.37e-06,3.056e-05,2.558e-05,1.6802e-05,2.15e-05,1.6616e-05,4.72e-05,8.326e-05,5.676e-05,2.77e-05,6.272e-05,8.814e-05,2.01e-05,5.514e-05,6.632e-05,4.296e-05
776,3.044e-05,3.668e-06,4.628e-05,1.9898e-06,7.12e-05,4.234e-05,1.7922e-05,3.146e-05,8.38e-05,3.316e-05,5.68e-05,5.434e-05,6.31e-05,8.832e-05,5.408e-05,7.886e-05,5.156e-05,9.796e-05,4.406e-05,6.164e-05,2.606e-05,1.2892e-05,4.102e-05,2.546e-05,4.332e-06,2.468e-05,2.83e-05,1.8832e-05,2.104e-05,1.6404e-05,2.666e-05,8.942e-05,6.01e-05,2.764e-05,8.348e-05,8.43e-05,2.39e-05,6.974e-05,6.568e-05,6.924e-05
778,4.768e-05,9.488e-06,6.21e-05,1.5678e-05,5.428e-05,3.176e-05,1.361e-05,3.422e-05,8.418e-05,4.124e-05,5.188e-05,5.66e-05,6.844e-05,9.904e-05,7.032e-05,8.886e-05,3.896e-05,8.636e-05,5.686e-05,6.004e-05,2.734e-05,2.132e-05,3.948e-05,2.084e-05,3.922e-06,2.676e-05,2.976e-05,1.9434e-05,1.7354e-05,1.4014e-05,4.434e-05,0.00011304,7.114e-05,3.408e-05,9.176e-05,0.00011142,6.484e-05,7.59e-05,7.41e-05,6.972e-05
780,3.678e-05,7.218e-06,6.084e-05,5.194e-05,7.296e-05,3.236e-05,2.514e-05,4.738e-05,9.96e-05,6.37e-05,3.61e-05,6.876e-05,6.654e-05,8.48e-05,6.092e-05,7.754e-05,5.966e-05,8.522e-05,4.444e-05,6.694e-05,3.148e-05,2.398e-05,3.692e-05,1.5298e-05,8.884e-06,2.534e-05,3.784e-05,2.158e-05,1.318e-05,2.068e-05,3.298e-05,0.00010462,8.008e-05,3.38e-05,8.846e-05,0.00013046,6.508e-05,7.478e-05,0.00010296,7.672e-05
