Wavelength [nm],Background (Mel),Modulation (Mel),Background (LMS),Modulation (LMS)380,1.1142e-05,1.6614e-06,1.3588e-06,1.782e-05,7.242e-06,3.764e-06,9.392e-06,4.538e-06,1.093e-05,6.43e-06,1.3284e-05,1.553e-05,4.868e-07,9.542e-06,1.1268e-05,6.714e-06,1.637e-05,1.129e-05,1.5266e-05,7.32e-06,4.048e-06,3.29e-06,2.83e-06,5.092e-06,7.288e-06,5.258e-06,5.896e-06,4.186e-06,8.976e-06,6.116e-06,3.236e-05,2.556e-05,2.274e-05,3.118e-05,1.8704e-05,1.8324e-05,1.572e-05,2.584e-05,1.6156e-05,2.034e-05
382,1.4106e-05,5.468e-06,0,1.4836e-05,4.5e-06,1.024e-05,3.208e-06,5.036e-06,1.2084e-05,8.756e-06,1.435e-05,1.2176e-05,5.48e-06,1.2922e-05,1.171e-05,1.1896e-05,1.6072e-05,7.302e-06,1.5692e-05,6.172e-06,5.302e-06,3.83e-06,4.57e-06,4.648e-06,6.086e-06,4.58e-06,8.422e-06,3.854e-06,8.516e-06,6.942e-06,2.806e-05,3.256e-05,2.13e-05,2.822e-05,2.228e-05,3.044e-05,1.8596e-05,2.12e-05,3.044e-05,1.9412e-05
384,1.5068e-05,7.168e-06,1.1936e-06,1.1406e-05,3.634e-06,1.1894e-05,7.2e-06,4.148e-06,1.2492e-05,6.596e-06,1.6098e-05,1.3652e-05,3.558e-06,1.1496e-05,9.99e-06,1.0008e-05,1.7796e-05,1.194e-05,1.344e-05,1.0212e-05,3.504e-06,2.434e-06,3.034e-06,2.666e-06,5.734e-06,4.966e-06,7.616e-06,3.322e-06,7.646e-06,6.762e-06,2.942e-05,3.018e-05,2.042e-05,2.88e-05,2.192e-05,2.334e-05,1.8558e-05,1.7652e-05,2.81e-05,1.8828e-05
386,1.3138e-05,8.388e-06,3.41e-06,9.146e-06,8.17e-07,8.838e-06,5.546e-06,3.828e-06,1.0422e-05,3.406e-06,1.5126e-05,1.266e-05,5.114e-06,9.28e-06,1.2488e-05,1.117e-05,1.6372e-05,1.0376e-05,1.3874e-05,7.118e-06,3.07e-06,3.27e-06,3.744e-06,3.76e-06,5.18e-06,6.564e-06,6.75e-06,4.544e-06,6.356e-06,5.658e-06,2.974e-05,2.546e-05,1.847e-05,2.69e-05,1.7322e-05,2.676e-05,1.7924e-05,2.23e-05,2.924e-05,1.9228e-05
388,1.0646e-05,1.0636e-05,2.75e-06,7.564e-06,2.404e-06,8.018e-06,5.924e-06,4.508e-06,9.404e-06,6.954e-06,1.1586e-05,1.2866e-05,1.3154e-06,1.3388e-05,1.0768e-05,9.794e-06,1.4774e-05,1.2158e-05,1.371e-05,7.134e-06,3.936e-06,2.734e-06,4.486e-06,3.83e-06,6.132e-06,6.638e-06,5.632e-06,3.322e-06,6.418e-06,6.992e-06,2.896e-05,2.13e-05,1.9008e-05,2.762e-05,1.8094e-05,2.46e-05,2.192e-05,1.7376e-05,2.686e-05,2.192e-05
390,8.346e-06,7.926e-06,4.624e-06,8.554e-06,6.822e-06,5.186e-06,8.826e-06,4.364e-06,1.0998e-05,5.006e-06,1.331e-05,1.2512e-05,4.29e-06,1.301e-05,1.202e-05,7.902e-06,1.495e-05,1.396e-05,1.4944e-05,4.97e-06,3.086e-06,3.152e-06,3.652e-06,3.662e-06,6.166e-06,6.484e-06,6.53e-06,3.972e-06,6.508e-06,5.984e-06,2.63e-05,2.342e-05,2.126e-05,2.852e-05,2.12e-05,2.372e-05,2.318e-05,1.3842e-05,2.582e-05,2.302e-05
392,5.634e-06,7.814e-06,6.702e-06,1.3196e-05,3.05e-06,2.082e-06,6.352e-06,3.03e-06,9.128e-06,4.89e-06,1.3314e-05,1.1128e-05,7.262e-06,1.208e-05,1.2356e-05,7.83e-06,1.6714e-05,1.3094e-05,1.343e-05,3.684e-06,2.514e-06,2.052e-06,3.146e-06,4.02e-06,5.482e-06,6.302e-06,5.144e-06,4.43e-06,7.974e-06,5.53e-06,2.944e-05,2.142e-05,2.528e-05,2.214e-05,1.6834e-05,2.616e-05,1.9994e-05,2.008e-05,2.994e-05,2.34e-05
394,5.672e-06,1.4752e-05,8.684e-06,1.199e-05,3.318e-06,3.474e-06,5.646e-06,3.674e-06,6.73e-06,6.946e-06,1.1484e-05,1.0308e-05,6.542e-06,1.0558e-05,1.219e-05,6.68e-06,1.5216e-05,1.3594e-05,1.1594e-05,5.102e-06,3.304e-06,1.9408e-06,3.58e-06,3.752e-06,4.436e-06,7.276e-06,5.73e-06,4.858e-06,5.998e-06,4.86e-06,3.062e-05,2.018e-05,2.186e-05,2.018e-05,1.7356e-05,2.056e-05,2.092e-05,1.7946e-05,2.85e-05,2.164e-05
396,4.614e-06,9.348e-06,8.816e-06,6.87e-06,4.44e-06,4.392e-06,7.154e-06,4.264e-06,1.0394e-05,2.844e-06,8.812e-06,1.0824e-05,1.005e-05,1.091e-05,1.2786e-05,7.836e-06,1.4316e-05,8.3e-06,1.2714e-05,4.08e-06,4.044e-06,2.29e-06,3.246e-06,1.4726e-06,4.14e-06,7.308e-06,7.84e-06,5.596e-06,5.81e-06,4.702e-06,2.41e-05,2.294e-05,1.98e-05,1.8222e-05,2.284e-05,2.388e-05,2.058e-05,1.8446e-05,2.954e-05,2.196e-05
398,5.968e-06,1.2392e-05,8.902e-06,1.1288e-05,5.904e-06,4.264e-06,2.456e-06,2.53e-06,8.314e-06,3.864e-06,1.0136e-05,9.336e-06,7.118e-06,1.1426e-05,1.1854e-05,4.004e-06,1.276e-05,1.2956e-05,1.0608e-05,6.702e-06,2.84e-06,1.0478e-06,3.628e-06,3.636e-06,3.84e-06,7.742e-06,5.024e-06,5.57e-06,5.876e-06,3.476e-06,2.284e-05,2.348e-05,1.9908e-05,1.7258e-05,2.358e-05,2.57e-05,1.743e-05,2.21e-05,2.784e-05,1.6664e-05
400,1.652e-07,1.0638e-05,6.866e-06,7.182e-06,4.872e-06,4.438e-06,6.616e-06,3.752e-06,6.696e-06,6.028e-06,1.1322e-05,1.0222e-05,7.188e-06,1.439e-05,1.1926e-05,4.262e-06,1.2052e-05,1.4298e-05,1.0844e-05,7.68e-06,3.442e-06,9.194e-07,2.682e-06,3.604e-06,4.948e-06,7.814e-06,4.724e-06,4.242e-06,6.194e-06,4.052e-06,2.602e-05,2.242e-05,1.87e-05,1.328e-05,1.872e-05,2.11e-05,1.5918e-05,1.823e-05,2.548e-05,1.834e-05
402,3.334e-07,1.0776e-05,1.2144e-05,5.894e-06,5.006e-06,5.076e-06,8.684e-06,5.616e-06,6.314e-06,7.668e-06,1.0566e-05,1.0538e-05,6.288e-06,1.0796e-05,1.2238e-05,6.51e-06,1.2474e-05,1.1812e-05,1.1616e-05,8.208e-06,3.044e-06,1.9106e-06,2.692e-06,4.288e-06,3.722e-06,6.93e-06,4.278e-06,4.156e-06,5.896e-06,4.602e-06,2.478e-05,2.156e-05,1.7724e-05,1.5396e-05,1.8766e-05,1.9744e-05,1.5084e-05,1.5684e-05,2.254e-05,1.5828e-05
404,1.3818e-06,1.2874e-05,1.12e-05,4.534e-06,7.266e-06,3.774e-06,7.912e-06,5.974e-06,6.508e-06,5.158e-06,1.0646e-05,7.738e-06,8.416e-06,9.256e-06,1.0048e-05,4.932e-06,1.005e-05,1.161e-05,1.071e-05,7.808e-06,2.82e-06,1.6078e-06,2.04e-06,4.338e-06,3.838e-06,6.054e-06,4.498e-06,4.578e-06,5.104e-06,3.84e-06,2.196e-05,1.8066e-05,2.048e-05,1.5942e-05,2.022e-05,2.13e-05,1.3138e-05,2.002e-05,2.674e-05,1.496e-05
406,1.2798e-06,1.4208e-05,9.588e-06,7.204e-06,6.776e-06,5.928e-06,6.734e-06,4.946e-06,2.458e-06,7.03e-06,9.606e-06,7.17e-06,8.436e-06,1.0624e-05,1.0372e-05,6.994e-06,8.088e-06,1.2478e-05,9.068e-06,8.508e-06,2.796e-06,1.0472e-06,3.308e-06,3.518e-06,2.836e-06,6.904e-06,4.778e-06,4.938e-06,5.604e-06,3.776e-06,2.162e-05,1.8398e-05,1.9308e-05,1.5922e-05,2.308e-05,1.8992e-05,1.0562e-05,1.889e-05,2.616e-05,1.2882e-05
408,4.912e-06,1.0244e-05,9.884e-06,9.248e-06,6.658e-06,4.144e-06,9.24e-06,6.218e-06,3.114e-06,1.062e-05,9.45e-06,8.386e-06,9.04e-06,1.1124e-05,1.1588e-05,7.226e-06,9.278e-06,1.1772e-05,1.1636e-05,7.97e-06,2.786e-06,1.059e-06,3.03e-06,3.3e-06,2.946e-06,7.932e-06,4.992e-06,5.266e-06,5.716e-06,3.418e-06,2.258e-05,1.7564e-05,2.11e-05,1.5932e-05,2.13e-05,1.8136e-05,1.376e-05,1.7554e-05,2.596e-05,1.3282e-05
410,2.478e-06,1.341e-05,1.1532e-05,6.136e-06,6.63e-06,6.196e-06,1.2156e-05,1.0406e-05,7.982e-06,8.97e-06,9.694e-06,6.136e-06,1.0602e-05,9.608e-06,9.706e-06,5.62e-06,1.1026e-05,1.0982e-05,9.854e-06,7.594e-06,3.232e-06,1.4452e-07,3.084e-06,3.558e-06,3.54e-06,6.506e-06,5.594e-06,5.486e-06,4.98e-06,3.296e-06,1.9776e-05,1.901e-05,1.7972e-05,1.7222e-05,2.052e-05,1.7022e-05,1.5024e-05,2.136e-05,2.518e-05,1.0508e-05
412,6.392e-06,1.3768e-05,9.332e-06,9.998e-06,1.0236e-05,8.318e-06,1.0314e-05,9.258e-06,1.0326e-05,6.96e-06,6.104e-06,5.236e-06,1.316e-05,8.92e-06,1.0406e-05,7.244e-06,8.666e-06,1.3022e-05,1.2698e-05,1.1552e-05,2.776e-06,1.4618e-06,2.762e-06,3.884e-06,3.098e-06,6.654e-06,4.278e-06,4.424e-06,4.584e-06,3.69e-06,2.424e-05,1.9746e-05,2.236e-05,2.128e-05,2.384e-05,1.67e-05,1.6138e-05,2.14e-05,2.756e-05,1.875e-05
414,1.0706e-05,1.881e-05,1.8338e-05,1.4154e-05,1.6402e-05,1.5448e-05,1.4886e-05,1.6996e-05,1.5472e-05,1.641e-05,1.122e-05,9.192e-06,1.424e-05,1.1618e-05,1.199e-05,1.0378e-05,8.224e-06,1.487e-05,1.2972e-05,1.3338e-05,3.074e-06,1.0966e-06,3.116e-06,2.812e-06,2.628e-06,6.982e-06,3.274e-06,4.66e-06,5.148e-06,3.08e-06,3.264e-05,3.384e-05,3.594e-05,2.994e-05,3.402e-05,2.588e-05,2.454e-05,2.898e-05,3.212e-05,2.538e-05
416,3.13e-05,4.074e-05,3.894e-05,3.57e-05,3.71e-05,3.26e-05,3.552e-05,3.524e-05,3.328e-05,3.188e-05,1.6e-05,1.3962e-05,1.763e-05,1.5542e-05,1.8058e-05,1.4918e-05,1.2136e-05,1.7976e-05,1.8676e-05,1.6476e-05,3.63e-06,2.928e-06,3.676e-06,3.982e-06,3.548e-06,7.144e-06,4.322e-06,5.41e-06,5.498e-06,3.532e-06,6.03e-05,5.76e-05,6.386e-05,5.686e-05,6.248e-05,5.368e-05,5.132e-05,5.628e-05,5.914e-05,5.188e-05
418,7.644e-05,8.446e-05,8.056e-05,8.098e-05,8.128e-05,7.266e-05,7.852e-05,7.596e-05,7.306e-05,7.742e-05,2.608e-05,2.632e-05,2.834e-05,2.77e-05,2.936e-05,2.656e-05,2.428e-05,2.93e-05,2.83e-05,2.78e-05,4.356e-06,3.71e-06,3.224e-06,5.434e-06,3.58e-06,7.842e-06,5.13e-06,6.846e-06,6.024e-06,4.158e-06,0.00011764,0.00011646,0.00011996,0.00011356,0.00012042,0.00010724,0.00010728,0.0001087,0.00011302,0.00010858
420,0.00014566,0.00015168,0.00014986,0.00014884,0.0001504,0.0001408,0.00014572,0.00014592,0.0001413,0.00014426,4.526e-05,4.478e-05,4.674e-05,4.612e-05,4.79e-05,4.24e-05,4.112e-05,4.648e-05,4.588e-05,4.53e-05,5.234e-06,4.608e-06,4.838e-06,6.94e-06,5.726e-06,8.24e-06,6.086e-06,7.668e-06,6.718e-06,5.162e-06,0.0002124,0.000214,0.0002162,0.0002098,0.0002154,0.0002,0.000201,0.0002014,0.000204,0.0002008
422,0.0002288,0.000237,0.0002356,0.0002336,0.0002344,0.0002234,0.0002292,0.0002264,0.0002252,0.000225,6.704e-05,6.428e-05,6.91e-05,6.666e-05,7.016e-05,6.44e-05,6.136e-05,6.734e-05,6.668e-05,6.576e-05,7.54e-06,7.724e-06,7.986e-06,7.976e-06,7.432e-06,9.864e-06,7.664e-06,1.0168e-05,8.766e-06,7.286e-06,0.0003482,0.0003474,0.0003518,0.000343,0.0003492,0.0003326,0.0003304,0.0003316,0.000334,0.0003296
424,0.0003152,0.0003194,0.0003202,0.0003162,0.0003168,0.0003068,0.0003104,0.0003078,0.0003078,0.0003084,8.87e-05,8.478e-05,8.89e-05,8.84e-05,9.002e-05,8.716e-05,8.25e-05,8.866e-05,8.804e-05,8.918e-05,9.672e-06,9.776e-06,1.0522e-05,1.1036e-05,1.0018e-05,1.262e-05,1.0656e-05,1.2512e-05,1.0696e-05,1.0298e-05,0.0005184,0.000517,0.000524,0.0005106,0.0005212,0.0004948,0.0004964,0.0004942,0.0004992,0.0004988
426,0.0003942,0.0003986,0.0003976,0.0003954,0.0003968,0.0003882,0.0003902,0.0003904,0.0003894,0.0003902,0.00010878,0.0001083,0.00010916,0.0001097,0.00011188,0.0001091,0.00010366,0.00010742,0.00010956,0.00010958,1.349e-05,1.3362e-05,1.4442e-05,1.434e-05,1.3156e-05,1.5014e-05,1.4236e-05,1.6408e-05,1.3934e-05,1.3964e-05,0.0007336,0.0007304,0.0007348,0.0007276,0.0007332,0.0007048,0.0007066,0.0007032,0.0007104,0.0007104
428,0.0004628,0.0004666,0.000467,0.0004666,0.0004668,0.000459,0.0004604,0.000459,0.0004596,0.0004588,0.00012946,0.0001261,0.00012952,0.00012954,0.00013078,0.00012768,0.00012394,0.00012702,0.00012766,0.00012876,1.813e-05,1.7706e-05,1.8316e-05,1.8988e-05,1.7858e-05,1.911e-05,1.7406e-05,2.054e-05,1.833e-05,1.8694e-05,0.0009664,0.0009672,0.0009726,0.000963,0.000969,0.000938,0.0009394,0.0009374,0.0009406,0.000942
430,0.0005124,0.0005132,0.0005118,0.0005124,0.0005138,0.0005082,0.0005104,0.0005084,0.0005058,0.0005066,0.00014242,0.00014026,0.0001423,0.000143,0.00014448,0.0001412,0.00013914,0.0001425,0.00014146,0.00014284,2.248e-05,2.25e-05,2.228e-05,2.286e-05,2.192e-05,2.318e-05,2.252e-05,2.406e-05,2.226e-05,2.244e-05,0.0011612,0.0011638,0.001165,0.0011582,0.001163,0.0011342,0.0011378,0.0011342,0.0011376,0.0011388
432,0.0005184,0.0005206,0.0005196,0.0005186,0.0005196,0.0005194,0.0005226,0.000519,0.0005158,0.0005164,0.00014494,0.00014316,0.00014538,0.00014594,0.00014756,0.0001459,0.00014136,0.000145,0.00014486,0.00014762,2.59e-05,2.608e-05,2.642e-05,2.658e-05,2.6e-05,2.652e-05,2.588e-05,2.782e-05,2.548e-05,2.62e-05,0.0012714,0.0012708,0.0012746,0.0012654,0.0012726,0.0012528,0.0012546,0.0012472,0.0012542,0.0012548
434,0.0004592,0.0004624,0.000462,0.000463,0.0004644,0.000467,0.0004692,0.0004652,0.0004648,0.0004634,0.00013328,0.00013084,0.00013364,0.00013332,0.00013524,0.0001363,0.00013076,0.00013418,0.0001339,0.00013726,2.87e-05,2.896e-05,2.9e-05,2.898e-05,2.886e-05,2.896e-05,2.818e-05,3.032e-05,2.828e-05,2.876e-05,0.0012714,0.0012716,0.0012748,0.0012664,0.0012742,0.0012616,0.0012616,0.0012576,0.001262,0.0012624
436,0.0003416,0.000342,0.0003426,0.000342,0.0003452,0.0003514,0.000353,0.0003502,0.0003506,0.0003486,0.00010632,0.00010344,0.00010576,0.00010568,0.00010842,0.00010852,0.00010498,0.00010804,0.00010742,0.0001107,3.002e-05,3.052e-05,3.022e-05,3.04e-05,3.018e-05,3.074e-05,2.972e-05,3.128e-05,3.034e-05,3.148e-05,0.001175,0.0011768,0.0011782,0.0011722,0.0011786,0.0011722,0.0011692,0.0011688,0.0011722,0.0011718
438,0.0002056,0.0002048,0.0002072,0.0002078,0.000207,0.0002162,0.0002186,0.0002154,0.0002146,0.0002124,7.48e-05,7.18e-05,7.43e-05,7.428e-05,7.59e-05,7.752e-05,7.346e-05,7.634e-05,7.564e-05,7.922e-05,3.17e-05,3.178e-05,3.162e-05,3.172e-05,3.13e-05,3.21e-05,3.118e-05,3.272e-05,3.164e-05,3.3e-05,0.0010176,0.0010162,0.00102,0.0010136,0.0010204,0.0010184,0.001017,0.0010146,0.0010176,0.0010172
440,0.00010494,0.0001042,0.00010576,0.00010936,0.00010618,0.00011172,0.00011408,0.00011066,0.00011126,0.00010882,5.298e-05,4.958e-05,5.136e-05,5.286e-05,5.284e-05,5.308e-05,5.2e-05,5.396e-05,5.272e-05,5.496e-05,3.28e-05,3.332e-05,3.214e-05,3.26e-05,3.252e-05,3.298e-05,3.3e-05,3.466e-05,3.266e-05,3.372e-05,0.000807,0.0008102,0.0008112,0.000805,0.0008108,0.0008188,0.0008146,0.000809,0.000814,0.0008128
442,6.082e-05,5.864e-05,6.008e-05,6.112e-05,6.31e-05,6.326e-05,6.444e-05,6.144e-05,6.352e-05,5.94e-05,4.422e-05,4.294e-05,4.234e-05,4.484e-05,4.7e-05,4.374e-05,4.386e-05,4.49e-05,4.31e-05,4.556e-05,3.352e-05,3.296e-05,3.322e-05,3.258e-05,3.308e-05,3.384e-05,3.33e-05,3.434e-05,3.312e-05,3.424e-05,0.0005536,0.0005548,0.0005564,0.0005522,0.0005578,0.0005704,0.0005642,0.0005632,0.0005648,0.0005654
444,5.46e-05,5.04e-05,5.132e-05,5.41e-05,5.37e-05,5.29e-05,5.44e-05,5.426e-05,5.35e-05,4.972e-05,4.466e-05,4.442e-05,4.33e-05,4.448e-05,4.718e-05,4.362e-05,4.262e-05,4.34e-05,4.334e-05,4.574e-05,3.414e-05,3.438e-05,3.394e-05,3.412e-05,3.384e-05,3.456e-05,3.402e-05,3.444e-05,3.416e-05,3.454e-05,0.0003378,0.000336,0.0003374,0.000336,0.0003402,0.0003506,0.0003494,0.0003476,0.0003464,0.0003476
446,5.386e-05,5.076e-05,5.114e-05,5.514e-05,5.418e-05,5.268e-05,5.432e-05,5.45e-05,5.438e-05,5.094e-05,4.794e-05,4.568e-05,4.716e-05,4.86e-05,4.918e-05,4.586e-05,4.548e-05,4.684e-05,4.498e-05,4.798e-05,3.576e-05,3.64e-05,3.618e-05,3.606e-05,3.588e-05,3.604e-05,3.574e-05,3.63e-05,3.606e-05,3.67e-05,0.00018728,0.00018602,0.00018862,0.0001894,0.00019098,0.0001956,0.00019346,0.00019142,0.00019148,0.00019332
448,5.892e-05,5.612e-05,5.488e-05,5.85e-05,5.806e-05,5.656e-05,5.842e-05,5.702e-05,5.766e-05,5.494e-05,5.338e-05,5.118e-05,5.148e-05,5.29e-05,5.368e-05,5.046e-05,5.112e-05,5.004e-05,4.972e-05,5.278e-05,3.974e-05,3.994e-05,3.938e-05,3.928e-05,3.912e-05,3.888e-05,3.93e-05,3.976e-05,3.91e-05,3.994e-05,0.00012112,0.00012264,0.00012204,0.0001219,0.0001243,0.00012442,0.00012218,0.00011894,0.0001203,0.00012192
450,6.436e-05,6.058e-05,5.996e-05,6.484e-05,6.212e-05,5.982e-05,6.26e-05,6.242e-05,6.228e-05,5.96e-05,6.006e-05,5.616e-05,5.562e-05,5.864e-05,5.872e-05,5.516e-05,5.684e-05,5.512e-05,5.44e-05,5.642e-05,4.434e-05,4.482e-05,4.396e-05,4.388e-05,4.39e-05,4.348e-05,4.386e-05,4.388e-05,4.376e-05,4.456e-05,0.00010712,0.0001069,0.00010482,0.00010688,0.00010906,0.00010636,0.00010544,0.00010106,0.00010206,0.00010756
452,6.836e-05,6.52e-05,6.378e-05,6.944e-05,6.49e-05,6.404e-05,6.53e-05,6.462e-05,6.452e-05,6.504e-05,6.296e-05,6.082e-05,5.792e-05,6.192e-05,6.184e-05,5.862e-05,6.02e-05,6.03e-05,5.998e-05,6.11e-05,4.818e-05,4.906e-05,4.808e-05,4.8e-05,4.82e-05,4.736e-05,4.724e-05,4.838e-05,4.838e-05,4.87e-05,0.00010734,0.00010284,0.00010526,0.00010866,0.0001093,0.0001062,0.00010456,0.0001007,0.00010124,0.00010574
454,7.164e-05,6.326e-05,6.108e-05,6.85e-05,6.778e-05,6.77e-05,6.726e-05,6.386e-05,6.602e-05,6.474e-05,6.494e-05,6.274e-05,6.176e-05,6.474e-05,6.68e-05,5.958e-05,6.174e-05,6.008e-05,6.232e-05,6.23e-05,5.076e-05,5.16e-05,5.024e-05,5.046e-05,5.15e-05,5.036e-05,5.002e-05,5.022e-05,5.038e-05,5.118e-05,0.00010524,0.00010328,0.00010212,0.00010684,0.00011076,0.00010242,0.000104,0.00010192,0.00010006,0.00010488
456,7.254e-05,6.758e-05,6.574e-05,7.074e-05,6.902e-05,6.654e-05,6.71e-05,6.476e-05,6.664e-05,6.448e-05,6.836e-05,6.56e-05,6.43e-05,6.846e-05,6.918e-05,6.232e-05,6.54e-05,6.556e-05,6.444e-05,6.512e-05,5.372e-05,5.462e-05,5.42e-05,5.38e-05,5.35e-05,5.26e-05,5.34e-05,5.326e-05,5.382e-05,5.308e-05,0.00010532,0.00010228,0.00010308,0.00010658,0.00010896,0.00010326,0.00010386,0.000102,9.994e-05,0.00010632
458,7.562e-05,7.032e-05,6.87e-05,7.444e-05,7.15e-05,6.99e-05,6.86e-05,6.992e-05,7.054e-05,6.786e-05,7.342e-05,7.048e-05,7.056e-05,7.276e-05,7.236e-05,6.886e-05,7.042e-05,7.078e-05,6.896e-05,6.886e-05,5.852e-05,5.882e-05,5.812e-05,5.794e-05,5.754e-05,5.726e-05,5.768e-05,5.674e-05,5.74e-05,5.718e-05,0.00011042,0.00010728,0.000106,0.00010892,0.00011158,0.0001042,0.0001063,0.00010396,0.0001053,0.0001083
460,7.864e-05,7.384e-05,7.224e-05,7.882e-05,7.556e-05,7.582e-05,7.256e-05,7.338e-05,7.528e-05,7.348e-05,7.854e-05,7.45e-05,7.426e-05,7.794e-05,7.712e-05,7.294e-05,7.654e-05,7.608e-05,7.39e-05,7.46e-05,6.236e-05,6.29e-05,6.23e-05,6.154e-05,6.246e-05,6.186e-05,6.194e-05,6.108e-05,6.174e-05,6.172e-05,0.00011488,0.00011,0.00010984,0.00011222,0.00011388,0.00010732,0.00011024,0.00010828,0.0001094,0.00010932
462,8.248e-05,7.836e-05,7.606e-05,8.04e-05,7.888e-05,7.826e-05,7.696e-05,7.528e-05,7.934e-05,7.698e-05,8.256e-05,7.996e-05,7.89e-05,8.168e-05,8.124e-05,7.844e-05,8.042e-05,8.064e-05,7.978e-05,7.846e-05,6.68e-05,6.734e-05,6.612e-05,6.62e-05,6.69e-05,6.626e-05,6.616e-05,6.512e-05,6.57e-05,6.606e-05,0.00011468,0.00011118,0.0001152,0.00011458,0.0001167,0.00011128,0.00011378,0.000112,0.00011034,0.00011212
464,8.734e-05,8.274e-05,7.788e-05,8.51e-05,8.284e-05,8.152e-05,8.082e-05,7.922e-05,8.304e-05,8.31e-05,8.78e-05,8.692e-05,8.42e-05,8.728e-05,8.76e-05,8.402e-05,8.688e-05,8.564e-05,8.53e-05,8.446e-05,7.08e-05,7.146e-05,7.09e-05,7.188e-05,7.142e-05,7.078e-05,7.05e-05,6.934e-05,7.12e-05,7.062e-05,0.00011632,0.00011588,0.00011598,0.00011818,0.00011972,0.00011514,0.00011736,0.000118,0.0001146,0.00011814
466,9.076e-05,8.672e-05,8.336e-05,8.946e-05,8.606e-05,8.386e-05,8.59e-05,8.354e-05,8.632e-05,8.62e-05,9.514e-05,9.474e-05,9.08e-05,9.428e-05,9.514e-05,9.018e-05,9.428e-05,9.258e-05,9.078e-05,9.118e-05,7.646e-05,7.674e-05,7.57e-05,7.678e-05,7.7e-05,7.622e-05,7.584e-05,7.432e-05,7.712e-05,7.56e-05,0.00012316,0.00012086,0.00012146,0.00012464,0.0001247,0.00012184,0.00012396,0.00011932,0.00011974,0.00012042
468,9.49e-05,9.118e-05,8.934e-05,9.216e-05,9.332e-05,9.008e-05,8.958e-05,8.764e-05,9.068e-05,9.024e-05,0.00010294,0.00010218,9.854e-05,0.00010074,0.00010138,9.754e-05,0.0001008,0.00010136,9.97e-05,9.832e-05,8.28e-05,8.344e-05,8.262e-05,8.342e-05,8.404e-05,8.252e-05,8.242e-05,8.026e-05,8.3e-05,8.22e-05,0.00012964,0.00012556,0.0001267,0.00013168,0.00012924,0.0001266,0.00012746,0.0001259,0.00012752,0.00012728
470,9.786e-05,9.56e-05,9.192e-05,9.508e-05,9.416e-05,9.236e-05,9.234e-05,9.096e-05,8.956e-05,9.392e-05,0.00010716,0.00010812,0.00010532,0.00010644,0.00010632,0.00010248,0.0001066,0.00010666,0.00010426,0.00010374,8.718e-05,8.792e-05,8.674e-05,8.752e-05,8.846e-05,8.726e-05,8.71e-05,8.438e-05,8.674e-05,8.656e-05,0.00012876,0.0001287,0.00013002,0.00013054,0.0001315,0.00012918,0.0001297,0.00012736,0.00012892,0.00012886
472,9.918e-05,9.626e-05,9.118e-05,9.54e-05,9.48e-05,9.09e-05,9.314e-05,9.062e-05,9.188e-05,9.428e-05,0.0001112,0.00011148,0.0001101,0.00011072,0.0001105,0.00010566,0.00010974,0.00010866,0.00010984,0.00010732,9.082e-05,9.15e-05,8.982e-05,9.114e-05,9.116e-05,9.052e-05,8.992e-05,8.776e-05,9.038e-05,8.866e-05,0.00013038,0.00012956,0.00013038,0.0001313,0.00013216,0.00012838,0.00013038,0.00012854,0.00012818,0.00012762
474,9.784e-05,9.662e-05,9.262e-05,9.636e-05,9.562e-05,9.2e-05,9.316e-05,9.238e-05,9.252e-05,9.33e-05,0.00011384,0.0001151,0.00011352,0.00011384,0.00011282,0.00010936,0.00011378,0.0001129,0.00011172,0.00010878,9.282e-05,9.33e-05,9.22e-05,9.392e-05,9.382e-05,9.244e-05,9.2e-05,9.024e-05,9.226e-05,9.126e-05,0.00013064,0.00012882,0.0001291,0.00013102,0.00013208,0.00012798,0.0001301,0.00012656,0.0001271,0.0001262
476,9.546e-05,9.48e-05,9.168e-05,9.448e-05,9.294e-05,9.058e-05,8.98e-05,8.95e-05,9.06e-05,9.312e-05,0.00011312,0.0001142,0.00011212,0.00011238,0.0001126,0.0001086,0.00011382,0.00011388,0.000112,0.0001095,9.3e-05,9.342e-05,9.214e-05,9.376e-05,9.42e-05,9.244e-05,9.214e-05,9.058e-05,9.196e-05,9.172e-05,0.00012462,0.0001236,0.00012228,0.00012722,0.00012704,0.00012356,0.0001243,0.00012468,0.00012388,0.00012284
478,9.292e-05,9.378e-05,8.902e-05,9.168e-05,9.084e-05,8.8e-05,8.814e-05,8.928e-05,9.066e-05,9.09e-05,0.00011442,0.00011646,0.00011342,0.00011464,0.00011498,0.0001101,0.00011504,0.00011574,0.00011386,0.00011054,9.382e-05,9.484e-05,9.38e-05,9.496e-05,9.516e-05,9.366e-05,9.396e-05,9.212e-05,9.378e-05,9.266e-05,0.00012262,0.00012224,0.00011982,0.00012398,0.00012334,0.00012094,0.00012338,0.00012144,0.00012114,0.0001179
480,9.47e-05,9.478e-05,9.216e-05,9.294e-05,9.454e-05,9.252e-05,9.02e-05,9.054e-05,9.178e-05,9.258e-05,0.00012176,0.00012228,0.00012156,0.00012162,0.00012036,0.00011766,0.00012092,0.0001224,0.0001205,0.0001189,9.868e-05,9.988e-05,9.84e-05,9.968e-05,0.0001001,9.744e-05,9.902e-05,9.674e-05,9.882e-05,9.782e-05,0.00012494,0.0001246,0.00012234,0.00012648,0.0001257,0.00012084,0.00012676,0.00012528,0.00012554,0.00012192
482,0.00010028,9.938e-05,9.596e-05,9.834e-05,9.9e-05,9.572e-05,9.926e-05,9.588e-05,9.682e-05,9.87e-05,0.00013,0.00013362,0.00013204,0.00013096,0.0001305,0.0001287,0.00013254,0.0001304,0.00012998,0.00012794,0.00010762,0.0001073,0.00010706,0.00010796,0.00010818,0.00010662,0.00010614,0.000105,0.00010734,0.00010596,0.00012904,0.00012998,0.0001279,0.00012872,0.00013088,0.0001246,0.00013032,0.0001269,0.00012766,0.00012638
484,0.00010046,0.00010128,9.866e-05,0.00010094,0.00010132,9.7e-05,9.94e-05,9.926e-05,9.936e-05,0.0001024,0.0001392,0.00014106,0.00014014,0.00013886,0.0001391,0.00013726,0.00013878,0.00013886,0.00013724,0.00013608,0.00011342,0.0001132,0.00011326,0.00011442,0.00011426,0.00011274,0.00011324,0.00011066,0.00011314,0.0001122,0.00013142,0.00013098,0.00012948,0.00013144,0.00012978,0.00012712,0.0001312,0.00012882,0.00013064,0.00012536
486,9.8e-05,0.00010076,9.948e-05,9.994e-05,0.00010018,9.68e-05,0.00010004,9.584e-05,9.906e-05,0.00010126,0.00014962,0.00015152,0.00014984,0.00014928,0.00014774,0.00014632,0.00014788,0.00014746,0.00014766,0.00014522,0.00012144,0.0001212,0.00012188,0.00012232,0.00012222,0.00012002,0.00012048,0.00011842,0.00011984,0.00011954,0.00013046,0.0001323,0.00012926,0.00013118,0.00013004,0.00012786,0.00012922,0.00012736,0.0001299,0.00012414
488,0.00010028,0.00010268,0.00010106,0.00010096,0.0001014,9.786e-05,0.00010182,9.67e-05,9.886e-05,0.00010176,0.00018246,0.00018482,0.00018284,0.0001818,0.00018186,0.00017472,0.00017756,0.00017734,0.00017802,0.00017588,0.00015028,0.0001502,0.00015064,0.00015086,0.00015146,0.0001463,0.00014578,0.00014514,0.0001457,0.00014632,0.00013366,0.00013648,0.00013316,0.00013486,0.0001342,0.00013014,0.0001315,0.00013132,0.00013056,0.00012952
490,0.00010262,0.00010566,0.00010662,0.00010356,0.00010446,0.00010276,0.00010422,0.00010222,0.0001027,0.00010476,0.0002836,0.0002862,0.0002824,0.0002828,0.0002822,0.000267,0.0002684,0.00027,0.0002708,0.000271,0.0002404,0.0002392,0.0002404,0.000241,0.00024,0.000227,0.0002272,0.000227,0.0002282,0.0002282,0.00014478,0.00014688,0.00014522,0.00014792,0.00014824,0.00014096,0.0001436,0.00014412,0.00014328,0.0001388
492,0.00010694,0.00011154,0.00011216,0.0001097,0.00011096,0.00010822,0.00010984,0.00010748,0.00011048,0.0001097,0.0005014,0.000503,0.0004986,0.0005002,0.0004986,0.0004698,0.0004724,0.0004756,0.000477,0.0004756,0.0004284,0.000427,0.0004276,0.0004276,0.0004272,0.0004014,0.0004026,0.0004022,0.0004048,0.0004048,0.00016662,0.00016972,0.00017,0.00016936,0.00016948,0.00016052,0.00016428,0.00016344,0.0001635,0.00015744
494,0.0001125,0.0001171,0.00011782,0.00011516,0.00011632,0.00011202,0.00011712,0.00011528,0.00011472,0.00011544,0.0008958,0.0008952,0.0008922,0.0008916,0.000891,0.0008442,0.000846,0.0008522,0.0008536,0.0008532,0.0007204,0.000719,0.00072,0.0007196,0.0007192,0.000682,0.000683,0.0006842,0.0006862,0.0006874,0.00019586,0.0002012,0.000199,0.0002008,0.00019864,0.00018908,0.00019518,0.0001931,0.00019296,0.00018766
496,0.00011852,0.00012124,0.00012426,0.00011984,0.00012232,0.00011698,0.00012178,0.00011932,0.00011972,0.00012136,0.0014222,0.0014232,0.0014186,0.0014192,0.0014174,0.001353,0.001353,0.00136,0.0013616,0.0013598,0.0009992,0.0009968,0.0009986,0.0009972,0.0009978,0.0009578,0.0009586,0.0009604,0.0009628,0.0009632,0.0002318,0.0002342,0.0002332,0.0002344,0.0002336,0.0002224,0.0002288,0.0002258,0.0002272,0.0002198
498,0.0001302,0.00013162,0.00013378,0.00013082,0.00013262,0.00012494,0.00013096,0.00012886,0.00012926,0.00012998,0.002102,0.002104,0.002096,0.002098,0.002096,0.002014,0.002014,0.00202,0.002022,0.00202,0.0012302,0.0012276,0.0012294,0.001228,0.0012284,0.001193,0.0011934,0.0011942,0.0011954,0.0011968,0.0002686,0.0002704,0.0002724,0.0002686,0.0002694,0.0002598,0.0002644,0.0002614,0.0002608,0.0002568
500,0.00014696,0.00014902,0.00015114,0.00014726,0.0001502,0.00014158,0.00014688,0.00014564,0.00014628,0.00014516,0.002882,0.002884,0.002876,0.002876,0.002876,0.002782,0.002782,0.002788,0.002792,0.00279,0.00141,0.0014072,0.0014092,0.0014082,0.0014088,0.0013792,0.0013804,0.00138,0.0013806,0.0013832,0.0003064,0.0003102,0.0003092,0.0003066,0.0003076,0.0002986,0.0003034,0.0002982,0.0002998,0.0002962
502,0.0001635,0.00016828,0.00016994,0.00016708,0.0001683,0.00016096,0.00016556,0.00016444,0.0001661,0.00016412,0.00362,0.00362,0.003612,0.003614,0.003612,0.003526,0.003522,0.00353,0.003534,0.003534,0.0015364,0.0015334,0.0015358,0.0015346,0.001535,0.001514,0.0015134,0.0015136,0.0015142,0.001517,0.0003378,0.0003424,0.0003424,0.0003414,0.0003402,0.000332,0.0003402,0.000331,0.000335,0.0003318
504,0.00017904,0.00018276,0.00018528,0.00018102,0.000182,0.00017644,0.00018064,0.0001791,0.00018166,0.00018062,0.004178,0.004178,0.00417,0.004172,0.00417,0.004104,0.0041,0.004108,0.004112,0.00411,0.0016038,0.0016006,0.0016036,0.0016026,0.0016024,0.0015882,0.0015882,0.001588,0.001589,0.0015922,0.000357,0.0003622,0.0003622,0.0003596,0.0003582,0.0003538,0.0003602,0.000357,0.0003568,0.0003534
506,0.00018542,0.00018816,0.00019048,0.00018626,0.00018922,0.00018518,0.0001899,0.0001865,0.00018946,0.00018882,0.00446,0.004458,0.004454,0.004454,0.004454,0.004416,0.004412,0.004422,0.004426,0.004426,0.001569,0.0015658,0.0015688,0.0015672,0.001569,0.001567,0.0015674,0.0015676,0.001569,0.0015704,0.0003588,0.0003638,0.0003632,0.00036,0.0003596,0.0003576,0.0003612,0.000359,0.0003586,0.0003568
508,0.0001884,0.0001936,0.00019392,0.0001887,0.00019254,0.00018948,0.00019288,0.00019136,0.00019274,0.00019154,0.004408,0.004408,0.004404,0.004404,0.004404,0.004398,0.004396,0.004402,0.004408,0.004406,0.0013708,0.001369,0.0013722,0.00137,0.0013718,0.001389,0.0013892,0.0013892,0.0013894,0.0013902,0.000341,0.000344,0.0003444,0.0003386,0.0003398,0.000338,0.000345,0.0003406,0.0003402,0.000341
510,0.0001896,0.00019242,0.00019328,0.00018928,0.00019198,0.00018956,0.00019368,0.0001915,0.00019136,0.00018936,0.004096,0.004098,0.004092,0.004096,0.004094,0.004116,0.004114,0.00412,0.004124,0.00412,0.0010498,0.001048,0.0010504,0.0010496,0.0010512,0.0010828,0.0010816,0.0010816,0.0010806,0.00108,0.0003112,0.0003156,0.000316,0.0003118,0.0003126,0.0003102,0.0003164,0.0003136,0.0003116,0.0003124
512,0.00018648,0.00018714,0.00018876,0.00018626,0.00018834,0.00018572,0.00018892,0.0001874,0.00018802,0.00018546,0.003536,0.003538,0.003532,0.003538,0.003536,0.003592,0.003588,0.003592,0.003592,0.003586,0.00071,0.000709,0.000711,0.0007102,0.0007112,0.0007432,0.0007422,0.0007418,0.00074,0.0007386,0.0002806,0.0002846,0.0002838,0.0002816,0.0002814,0.000281,0.0002852,0.000284,0.0002814,0.0002806
514,0.00017522,0.000177,0.00017778,0.00017444,0.00017548,0.0001734,0.00017936,0.00017696,0.00017524,0.00017356,0.002704,0.002704,0.002702,0.002706,0.002706,0.002796,0.00279,0.00279,0.002786,0.00278,0.0004574,0.0004566,0.0004584,0.0004574,0.0004576,0.0004814,0.0004802,0.0004804,0.0004786,0.0004778,0.0002494,0.0002516,0.0002486,0.0002498,0.0002474,0.0002506,0.0002542,0.00025,0.00025,0.000249
516,0.00015918,0.00015972,0.00016032,0.00015932,0.00015998,0.00015666,0.0001632,0.00016232,0.00015814,0.00015646,0.0017158,0.0017176,0.0017166,0.0017202,0.0017184,0.0018162,0.00181,0.0018058,0.0018024,0.001799,0.000303,0.0003018,0.0003034,0.0003022,0.0003028,0.0003182,0.0003166,0.0003174,0.0003154,0.0003152,0.0002172,0.0002204,0.0002178,0.000218,0.0002168,0.0002186,0.0002212,0.000218,0.0002184,0.0002174
518,0.00014568,0.00014618,0.00014732,0.00014502,0.00014702,0.0001449,0.00015136,0.00014808,0.00014772,0.00014474,0.000838,0.0008388,0.0008382,0.00084,0.0008404,0.0009038,0.0008984,0.000895,0.0008938,0.0008928,0.0002116,0.0002114,0.0002118,0.0002112,0.0002108,0.0002198,0.0002188,0.0002194,0.000217,0.0002182,0.00019232,0.00019544,0.00019744,0.00019602,0.00019458,0.00019478,0.00019838,0.00019308,0.00019446,0.00019658
520,0.00014354,0.00014324,0.00014394,0.0001431,0.0001427,0.00014138,0.00014486,0.00014458,0.00014474,0.00014024,0.0004074,0.0004076,0.0004076,0.0004082,0.0004076,0.0004324,0.0004302,0.000428,0.000428,0.0004294,0.00017532,0.00017466,0.00017504,0.00017456,0.00017418,0.0001785,0.00017748,0.00017854,0.00017706,0.0001776,0.00018742,0.00018798,0.00018844,0.00018722,0.00018704,0.00018602,0.00018806,0.00018648,0.00018646,0.00018922
522,0.00014488,0.00014554,0.00014452,0.00014492,0.0001447,0.00014214,0.00014674,0.00014622,0.0001439,0.00014188,0.0002806,0.0002796,0.000279,0.0002806,0.0002806,0.0002864,0.0002844,0.0002854,0.0002862,0.0002864,0.00016422,0.00016402,0.00016446,0.00016398,0.00016326,0.00016566,0.00016468,0.00016626,0.00016464,0.00016516,0.0001858,0.00018876,0.00019122,0.00019042,0.00018708,0.00018722,0.00018886,0.00018824,0.00018732,0.00018914
524,0.00014736,0.0001486,0.00014756,0.00014736,0.00014894,0.0001452,0.00014798,0.0001491,0.0001468,0.00014476,0.0002514,0.0002512,0.0002498,0.0002512,0.0002518,0.0002522,0.0002496,0.0002502,0.0002518,0.0002514,0.00016136,0.0001609,0.00016102,0.00016028,0.00016004,0.00016194,0.0001612,0.00016282,0.00016134,0.00016144,0.00018978,0.00019226,0.00019326,0.0001922,0.00019026,0.00019186,0.00019256,0.00019038,0.00018958,0.00019218
526,0.00015126,0.00015184,0.00015122,0.00014904,0.00015284,0.00014874,0.00015132,0.00015268,0.00015192,0.00014806,0.0002442,0.0002434,0.0002426,0.0002436,0.0002442,0.000243,0.000241,0.0002418,0.0002432,0.0002434,0.0001605,0.00016024,0.00015994,0.00015912,0.00015908,0.00016094,0.00015982,0.00016156,0.00016048,0.0001606,0.00019542,0.00019568,0.00019596,0.00019482,0.00019426,0.00019586,0.00019564,0.00019476,0.00019424,0.00019528
528,0.00015586,0.00015418,0.00015502,0.0001534,0.000154,0.0001544,0.00015402,0.0001556,0.00015438,0.00015196,0.0002392,0.0002392,0.0002374,0.0002386,0.00024,0.0002372,0.0002366,0.0002386,0.0002394,0.0002384,0.00015934,0.00015926,0.0001587,0.00015822,0.00015744,0.00015966,0.00015956,0.00016018,0.00015876,0.00015974,0.0002002,0.0001971,0.0002006,0.0002012,0.0001984,0.0002,0.00019924,0.0001997,0.00019916,0.0001999
530,0.00015912,0.00015868,0.00015868,0.00015696,0.00015868,0.00015836,0.00015716,0.00015874,0.00015844,0.00015528,0.0002332,0.0002326,0.0002308,0.0002318,0.0002332,0.0002316,0.000231,0.000232,0.0002318,0.0002312,0.00015812,0.00015872,0.00015858,0.0001578,0.0001576,0.00015918,0.00015878,0.00015932,0.00015796,0.0001589,0.0002022,0.0002032,0.0002048,0.0002046,0.0002052,0.0002028,0.000203,0.0002008,0.0002012,0.0002042
532,0.0001623,0.00016238,0.00015998,0.00016148,0.00016088,0.00016228,0.00016216,0.00016312,0.00016134,0.00015864,0.000227,0.0002282,0.000226,0.0002248,0.0002274,0.0002254,0.0002256,0.0002254,0.0002258,0.0002254,0.00015872,0.00015876,0.00015854,0.0001582,0.00015766,0.00015964,0.00015932,0.0001594,0.0001584,0.00015862,0.0002076,0.0002058,0.0002088,0.0002088,0.0002076,0.000207,0.0002072,0.0002074,0.000206,0.0002076
534,0.00016522,0.00016592,0.00016244,0.00016514,0.00016464,0.0001666,0.00016484,0.00016596,0.00016406,0.00016248,0.0002226,0.000223,0.0002214,0.000221,0.0002224,0.000221,0.0002216,0.0002212,0.0002214,0.0002214,0.00015924,0.00015876,0.0001588,0.00015864,0.00015762,0.00016022,0.00015944,0.00015912,0.00015868,0.00015902,0.0002124,0.000211,0.000215,0.0002152,0.000212,0.0002116,0.0002096,0.0002114,0.00021,0.0002134
536,0.00016958,0.00016822,0.0001665,0.00016902,0.00016864,0.0001701,0.00016738,0.00016946,0.00016786,0.00016792,0.000221,0.0002202,0.000219,0.0002188,0.0002204,0.0002192,0.0002194,0.0002192,0.0002186,0.0002186,0.00015952,0.00015978,0.00015916,0.0001593,0.00015826,0.00016054,0.00016004,0.00015968,0.00015912,0.00015984,0.000218,0.0002172,0.0002194,0.0002204,0.0002176,0.000217,0.0002146,0.0002154,0.0002144,0.0002186
538,0.00017352,0.00017182,0.00017132,0.00017374,0.00017186,0.00017416,0.000171,0.00017386,0.00017168,0.00017208,0.0002206,0.0002204,0.0002188,0.0002188,0.0002204,0.0002192,0.000219,0.0002194,0.0002178,0.0002182,0.00016074,0.00016106,0.00015994,0.00016052,0.00015932,0.00016132,0.00016124,0.00016078,0.00016046,0.00016092,0.0002238,0.000222,0.0002262,0.0002254,0.0002232,0.0002238,0.0002208,0.0002222,0.0002208,0.0002248
540,0.00017914,0.00017764,0.00017498,0.00017702,0.00017516,0.00017786,0.0001738,0.00017718,0.00017474,0.00017504,0.0002208,0.0002216,0.0002192,0.0002192,0.000221,0.0002184,0.000218,0.0002192,0.0002184,0.0002198,0.00016252,0.00016244,0.00016176,0.00016232,0.00016054,0.00016198,0.00016248,0.00016258,0.0001617,0.0001629,0.0002318,0.0002268,0.0002318,0.000232,0.0002302,0.0002304,0.0002266,0.0002284,0.0002282,0.000231
542,0.00018446,0.00018186,0.00018074,0.00018208,0.0001806,0.00018376,0.00018008,0.00018068,0.00018056,0.00018168,0.0002226,0.0002226,0.0002206,0.000221,0.000222,0.0002194,0.0002202,0.0002216,0.0002208,0.0002206,0.0001647,0.0001644,0.00016398,0.00016434,0.00016324,0.00016348,0.0001641,0.00016372,0.00016374,0.00016392,0.0002394,0.0002378,0.0002394,0.0002382,0.0002384,0.0002368,0.0002336,0.0002354,0.0002366,0.0002382
544,0.00018782,0.00018746,0.00018548,0.0001878,0.00018528,0.0001894,0.00018462,0.00018702,0.00018474,0.00018652,0.000223,0.0002232,0.0002226,0.0002218,0.0002234,0.0002206,0.0002222,0.0002228,0.000222,0.0002228,0.00016626,0.0001668,0.00016584,0.00016628,0.00016504,0.0001654,0.00016642,0.00016624,0.00016614,0.00016592,0.0002488,0.0002472,0.0002486,0.0002488,0.000249,0.000245,0.0002414,0.0002452,0.0002452,0.0002474
546,0.00019282,0.00019092,0.00018944,0.00019132,0.00019008,0.00019276,0.00018752,0.00019086,0.00018904,0.0001924,0.0002226,0.0002236,0.000223,0.0002224,0.000224,0.0002212,0.0002228,0.0002234,0.0002224,0.0002234,0.00016724,0.00016802,0.0001675,0.00016784,0.00016646,0.00016724,0.00016836,0.00016762,0.00016738,0.00016736,0.0002578,0.0002548,0.0002572,0.0002552,0.0002562,0.0002546,0.0002502,0.0002538,0.000253,0.0002562
548,0.0001979,0.00019582,0.00019438,0.00019492,0.0001944,0.0001976,0.000193,0.00019538,0.00019396,0.00019652,0.0002242,0.0002244,0.0002236,0.0002222,0.0002246,0.0002224,0.0002232,0.0002242,0.0002232,0.0002246,0.00016924,0.00016966,0.00016858,0.00016924,0.00016828,0.0001696,0.00017026,0.0001691,0.00016944,0.00016904,0.0002666,0.0002634,0.0002666,0.0002662,0.0002668,0.0002646,0.0002612,0.0002624,0.0002646,0.0002652
550,0.000202,0.0002014,0.00019782,0.0002002,0.00019838,0.0002028,0.0001973,0.0002004,0.00019746,0.000202,0.0002242,0.0002246,0.000224,0.0002228,0.0002234,0.000223,0.0002246,0.0002238,0.0002228,0.0002248,0.00017102,0.00017114,0.00017054,0.00017072,0.00017016,0.00017108,0.00017186,0.00017072,0.00017112,0.00017084,0.0002798,0.000275,0.0002782,0.0002772,0.0002782,0.0002776,0.0002734,0.0002742,0.0002756,0.0002752
552,0.0002078,0.0002052,0.0002036,0.0002046,0.0002032,0.0002054,0.000202,0.0002056,0.0002032,0.0002054,0.0002252,0.000226,0.000225,0.0002236,0.0002248,0.0002236,0.000224,0.0002248,0.0002244,0.0002246,0.00017284,0.00017254,0.00017228,0.00017258,0.00017166,0.00017248,0.00017286,0.00017228,0.0001723,0.00017222,0.0002946,0.0002912,0.0002934,0.0002894,0.0002908,0.0002904,0.0002882,0.0002894,0.0002896,0.000292
554,0.0002124,0.00021,0.0002078,0.0002108,0.0002074,0.0002118,0.000206,0.0002086,0.0002082,0.0002096,0.0002262,0.0002268,0.0002252,0.0002248,0.000225,0.0002242,0.0002258,0.0002246,0.000224,0.0002262,0.00017402,0.00017396,0.00017388,0.00017456,0.00017326,0.00017346,0.00017484,0.00017302,0.00017402,0.00017352,0.0003156,0.0003102,0.0003122,0.0003114,0.0003142,0.000311,0.000309,0.0003088,0.0003078,0.0003094
556,0.000216,0.0002148,0.0002116,0.0002132,0.0002114,0.0002142,0.0002102,0.0002126,0.0002108,0.0002144,0.0002258,0.0002278,0.0002254,0.0002256,0.0002256,0.0002246,0.0002262,0.0002248,0.0002244,0.000226,0.0001752,0.00017438,0.00017438,0.00017464,0.00017414,0.00017418,0.00017466,0.00017332,0.00017422,0.00017442,0.0003544,0.0003488,0.000351,0.0003492,0.0003506,0.0003444,0.0003414,0.0003438,0.000343,0.0003444
558,0.0002206,0.000219,0.0002166,0.0002172,0.0002158,0.0002176,0.0002144,0.0002168,0.0002148,0.0002184,0.0002266,0.0002278,0.0002264,0.0002246,0.000226,0.0002246,0.0002264,0.0002254,0.000225,0.0002258,0.00017566,0.00017518,0.00017532,0.00017532,0.00017528,0.00017472,0.00017494,0.00017434,0.00017482,0.00017504,0.00046,0.0004556,0.0004578,0.000455,0.0004552,0.0004398,0.0004392,0.0004402,0.0004402,0.0004426
560,0.0002268,0.0002252,0.000223,0.0002238,0.000221,0.0002218,0.000219,0.0002214,0.000221,0.0002242,0.000228,0.0002286,0.000227,0.0002266,0.0002274,0.0002254,0.0002262,0.000226,0.0002254,0.0002262,0.0001765,0.00017566,0.00017612,0.0001767,0.000176,0.00017492,0.00017564,0.00017512,0.00017638,0.00017582,0.0007626,0.0007586,0.0007594,0.000755,0.000755,0.0007156,0.0007176,0.0007206,0.000722,0.0007228
562,0.0002334,0.0002324,0.00023,0.0002336,0.0002294,0.00023,0.0002276,0.00023,0.0002284,0.0002318,0.0002282,0.0002294,0.000228,0.0002272,0.0002272,0.0002262,0.0002254,0.000225,0.0002266,0.0002264,0.00017678,0.00017582,0.00017658,0.00017676,0.00017672,0.00017524,0.00017648,0.00017538,0.00017616,0.00017584,0.0014118,0.0014056,0.0014102,0.001402,0.001399,0.0013274,0.001334,0.0013364,0.0013422,0.0013444
564,0.000255,0.0002522,0.0002512,0.0002516,0.0002502,0.0002494,0.0002476,0.000249,0.0002482,0.0002502,0.0002282,0.0002288,0.0002288,0.0002284,0.0002284,0.0002272,0.0002262,0.0002266,0.0002268,0.0002272,0.0001777,0.00017648,0.00017656,0.00017736,0.00017694,0.0001753,0.0001762,0.00017608,0.0001769,0.00017602,0.002582,0.002572,0.00258,0.002568,0.002564,0.002458,0.00247,0.00247,0.002478,0.002482
566,0.0003006,0.0002984,0.0002992,0.0002988,0.0002976,0.0002924,0.0002912,0.000293,0.0002934,0.0002952,0.000231,0.0002298,0.0002302,0.0002298,0.0002292,0.0002298,0.0002278,0.0002286,0.0002288,0.0002282,0.0001787,0.00017706,0.00017796,0.0001782,0.00017846,0.0001766,0.0001771,0.000177,0.00017798,0.00017726,0.003954,0.003938,0.003944,0.003932,0.003932,0.003802,0.003818,0.00382,0.003826,0.00383
568,0.0004046,0.0004028,0.0004024,0.0004006,0.0004002,0.0003882,0.0003886,0.0003896,0.000391,0.0003918,0.0002312,0.0002322,0.0002314,0.0002316,0.0002312,0.0002308,0.0002296,0.0002292,0.000231,0.0002306,0.00017944,0.00017784,0.0001786,0.00017878,0.00017888,0.00017762,0.00017802,0.00017772,0.00017894,0.00017808,0.005398,0.005384,0.00539,0.005376,0.005376,0.005232,0.005252,0.005254,0.005262,0.005264
570,0.0006242,0.0006216,0.0006212,0.000619,0.0006194,0.000593,0.0005944,0.0005952,0.0005972,0.0005972,0.0002336,0.0002346,0.0002334,0.0002344,0.0002338,0.0002326,0.000232,0.0002312,0.0002324,0.0002326,0.00018016,0.00017906,0.00017952,0.0001798,0.00017998,0.00017814,0.0001791,0.00017862,0.00017946,0.00017894,0.006862,0.006848,0.006856,0.00684,0.006842,0.00669,0.006712,0.006708,0.006718,0.006718
572,0.0010686,0.0010654,0.0010638,0.0010616,0.0010596,0.0010104,0.001011,0.0010146,0.0010172,0.0010184,0.0002396,0.0002396,0.0002392,0.00024,0.0002396,0.0002378,0.0002362,0.0002362,0.000237,0.0002378,0.00018196,0.00018054,0.00018146,0.00018214,0.00018188,0.00018,0.0001807,0.00017962,0.00018062,0.00018062,0.008292,0.008276,0.008284,0.008268,0.00827,0.008114,0.008134,0.008132,0.008138,0.008138
574,0.0018932,0.001892,0.001887,0.0018846,0.0018848,0.0018002,0.0018016,0.001808,0.0018124,0.0018154,0.0002496,0.0002502,0.0002496,0.0002502,0.0002492,0.0002474,0.0002454,0.0002464,0.000246,0.0002464,0.00018468,0.00018292,0.00018378,0.0001838,0.00018414,0.00018244,0.00018304,0.0001821,0.00018262,0.00018206,0.009676,0.009658,0.009664,0.00965,0.009652,0.009496,0.009514,0.009512,0.009516,0.009518
576,0.003086,0.003084,0.003078,0.003076,0.003078,0.002964,0.002966,0.002972,0.002978,0.002978,0.0002672,0.0002684,0.0002664,0.0002674,0.0002656,0.0002636,0.0002612,0.0002608,0.000263,0.0002634,0.00018856,0.00018684,0.00018848,0.0001882,0.0001887,0.00018592,0.00018608,0.00018588,0.00018618,0.00018586,0.010832,0.010818,0.010822,0.010808,0.010816,0.01067,0.010688,0.010682,0.010688,0.010692
578,0.00434,0.004336,0.004332,0.004328,0.00433,0.004198,0.0042,0.004202,0.004212,0.004216,0.000293,0.0002936,0.0002918,0.0002926,0.000292,0.0002878,0.0002856,0.0002856,0.000287,0.000287,0.00019662,0.00019534,0.00019658,0.00019628,0.00019656,0.0001933,0.0001937,0.00019308,0.00019384,0.00019348,0.011564,0.01155,0.011556,0.01154,0.011552,0.011422,0.01144,0.011436,0.01144,0.011446
580,0.005622,0.00562,0.005616,0.005608,0.00561,0.005468,0.00547,0.00547,0.005484,0.005486,0.000334,0.0003342,0.0003318,0.0003334,0.000334,0.0003262,0.0003236,0.0003254,0.000326,0.000326,0.0002118,0.0002104,0.0002116,0.000211,0.0002112,0.0002074,0.0002078,0.0002076,0.0002082,0.0002084,0.011994,0.01198,0.011986,0.011972,0.011982,0.01187,0.011886,0.011882,0.011892,0.011898
582,0.006836,0.006836,0.006832,0.006822,0.006824,0.006678,0.006682,0.00668,0.006696,0.0067,0.0004114,0.0004106,0.0004092,0.0004104,0.0004108,0.0003976,0.0003962,0.000398,0.0003988,0.0003988,0.0002394,0.0002378,0.0002392,0.0002384,0.0002386,0.0002338,0.0002336,0.000234,0.0002352,0.0002346,0.01218,0.012168,0.012174,0.012158,0.012172,0.012076,0.012086,0.012084,0.0121,0.012102
584,0.00791,0.007912,0.007908,0.007898,0.0079,0.007762,0.007768,0.007762,0.00778,0.007784,0.0005762,0.000575,0.0005734,0.0005756,0.0005748,0.0005516,0.000549,0.0005512,0.0005524,0.0005524,0.000288,0.000286,0.0002872,0.0002874,0.0002874,0.0002796,0.0002796,0.0002806,0.0002812,0.0002812,0.012186,0.012174,0.012184,0.012164,0.01218,0.012094,0.012104,0.012104,0.012128,0.012124
586,0.008842,0.008842,0.00884,0.008832,0.008832,0.008716,0.008724,0.008718,0.008738,0.008738,0.000925,0.0009256,0.0009216,0.0009244,0.0009222,0.000883,0.0008798,0.000885,0.0008868,0.0008894,0.0003816,0.0003798,0.0003808,0.0003802,0.0003808,0.0003678,0.0003672,0.0003686,0.0003696,0.0003698,0.01202,0.012006,0.012018,0.011998,0.012014,0.011944,0.011952,0.011954,0.01198,0.01197
588,0.009358,0.00936,0.009358,0.009346,0.00935,0.009266,0.009278,0.009268,0.009284,0.009286,0.0013274,0.0013284,0.0013236,0.0013258,0.0013232,0.0012788,0.0012758,0.001281,0.001284,0.0012838,0.0005048,0.0005032,0.0005046,0.0005038,0.000504,0.0004862,0.000486,0.0004874,0.0004878,0.0004888,0.011796,0.011784,0.011794,0.011776,0.011794,0.011732,0.01174,0.01174,0.011766,0.01175
590,0.00943,0.009436,0.009432,0.009422,0.009426,0.00939,0.009402,0.00939,0.009402,0.0094,0.00168,0.001681,0.0016762,0.0016786,0.001678,0.0016368,0.001635,0.0016388,0.0016406,0.001639,0.0006628,0.0006614,0.0006622,0.0006616,0.0006614,0.0006376,0.000638,0.0006392,0.0006396,0.0006406,0.011498,0.01149,0.011496,0.011482,0.011498,0.011446,0.011452,0.01145,0.011474,0.011454
592,0.008904,0.008914,0.008908,0.008902,0.008906,0.008934,0.008944,0.008934,0.008934,0.008926,0.0019002,0.0019012,0.0018968,0.0018994,0.0018982,0.0018694,0.0018646,0.0018684,0.00187,0.0018672,0.0008604,0.0008584,0.0008592,0.0008584,0.0008582,0.0008276,0.000827,0.0008292,0.0008294,0.0008306,0.01115,0.011142,0.01115,0.011134,0.01115,0.0111,0.011104,0.011098,0.011118,0.011096
594,0.007772,0.007784,0.007778,0.007774,0.007778,0.007868,0.007876,0.007862,0.007852,0.007844,0.0019888,0.0019908,0.0019862,0.0019888,0.0019878,0.0019696,0.0019632,0.001966,0.0019682,0.0019636,0.0010958,0.0010936,0.0010944,0.0010938,0.0010942,0.001056,0.001055,0.0010574,0.0010572,0.0010586,0.01076,0.010752,0.01076,0.010746,0.01076,0.010706,0.010704,0.0107,0.010712,0.010694
596,0.006074,0.006084,0.00608,0.006078,0.006082,0.006204,0.006206,0.006188,0.00618,0.00617,0.001978,0.0019788,0.0019754,0.0019774,0.0019762,0.0019656,0.0019584,0.001963,0.0019604,0.0019564,0.001389,0.0013874,0.001387,0.0013868,0.0013872,0.001341,0.0013396,0.0013424,0.0013428,0.0013438,0.010272,0.010262,0.01027,0.010258,0.01027,0.01021,0.010204,0.010196,0.010212,0.010192
598,0.004488,0.004498,0.004494,0.00449,0.004496,0.004608,0.00461,0.004594,0.004588,0.00458,0.0018842,0.0018858,0.001881,0.0018862,0.001884,0.001879,0.0018744,0.001875,0.001874,0.0018692,0.0016812,0.00168,0.0016808,0.0016786,0.0016792,0.0016258,0.0016248,0.0016274,0.001627,0.0016294,0.009806,0.009798,0.009806,0.009794,0.009806,0.009736,0.00973,0.009724,0.009736,0.00972
600,0.00316,0.003166,0.003164,0.00316,0.003164,0.003256,0.003256,0.003242,0.003238,0.003234,0.001687,0.0016892,0.0016872,0.0016888,0.001688,0.0016952,0.0016894,0.0016896,0.0016896,0.0016836,0.001975,0.001973,0.001974,0.0019722,0.001972,0.0019144,0.0019136,0.0019154,0.0019156,0.0019184,0.009352,0.009344,0.009354,0.009344,0.009352,0.009278,0.009272,0.009268,0.009278,0.009268
602,0.00209,0.002092,0.002094,0.002088,0.002094,0.002164,0.002166,0.002154,0.002152,0.00215,0.0013796,0.0013806,0.0013814,0.0013812,0.001381,0.0013966,0.0013918,0.0013922,0.0013904,0.0013874,0.00226,0.00226,0.00226,0.002258,0.002258,0.002196,0.002196,0.002198,0.002198,0.002202,0.008904,0.008898,0.008906,0.008896,0.008904,0.008826,0.008824,0.00882,0.008832,0.008828
604,0.0012382,0.0012422,0.0012402,0.0012366,0.0012416,0.001295,0.0012982,0.001289,0.0012916,0.001286,0.001074,0.0010748,0.0010746,0.0010758,0.0010746,0.0010836,0.0010806,0.0010788,0.001078,0.001077,0.002532,0.00253,0.00253,0.00253,0.00253,0.002466,0.002466,0.002468,0.002468,0.002474,0.008452,0.008448,0.008456,0.008444,0.008452,0.008374,0.00837,0.008372,0.008384,0.008382
606,0.0006176,0.0006194,0.0006192,0.0006134,0.000618,0.0006498,0.0006522,0.0006458,0.0006474,0.0006434,0.001036,0.0010384,0.0010364,0.0010368,0.001035,0.0010058,0.0010038,0.0010066,0.0010066,0.0010058,0.002776,0.002772,0.002774,0.002772,0.002772,0.002712,0.002714,0.002716,0.002716,0.00272,0.007894,0.00789,0.007896,0.007888,0.007894,0.007828,0.007826,0.007828,0.007842,0.00784
608,0.0003568,0.0003592,0.000356,0.000351,0.0003558,0.0003646,0.0003692,0.0003648,0.000365,0.000363,0.0015056,0.0015104,0.001504,0.0015028,0.0015032,0.0014182,0.001418,0.001425,0.001428,0.0014286,0.002902,0.0029,0.002902,0.0029,0.0029,0.002848,0.00285,0.002852,0.002852,0.002856,0.00721,0.007206,0.007214,0.007206,0.007212,0.007174,0.007168,0.007174,0.007184,0.007182
610,0.0002826,0.000283,0.0002808,0.0002774,0.0002816,0.0002814,0.000284,0.0002808,0.0002836,0.00028,0.002356,0.002358,0.002348,0.00235,0.00235,0.00222,0.002222,0.002232,0.002234,0.002236,0.0029,0.002896,0.0029,0.002898,0.002898,0.00286,0.00286,0.002862,0.00286,0.002864,0.006376,0.006372,0.006376,0.006374,0.00638,0.006368,0.00636,0.006368,0.006374,0.00637
612,0.0002632,0.000262,0.00026,0.0002584,0.000263,0.0002592,0.000263,0.0002588,0.0002616,0.000258,0.003406,0.003408,0.003398,0.003398,0.003396,0.003234,0.003236,0.003248,0.00325,0.003252,0.002754,0.002752,0.002754,0.002754,0.002754,0.002732,0.002732,0.002732,0.00273,0.002732,0.005428,0.005426,0.005432,0.00543,0.005436,0.00544,0.005434,0.005436,0.00544,0.005438
614,0.0002576,0.0002576,0.000256,0.0002536,0.0002574,0.0002536,0.000257,0.0002544,0.0002564,0.000252,0.004526,0.004526,0.004516,0.004518,0.004512,0.004326,0.004326,0.004338,0.004338,0.00434,0.002466,0.002466,0.002468,0.002466,0.002468,0.002466,0.002464,0.002464,0.00246,0.002462,0.00445,0.00445,0.004452,0.004448,0.004458,0.004474,0.004464,0.004466,0.004468,0.004464
616,0.0002652,0.000263,0.0002616,0.0002604,0.0002612,0.0002582,0.000258,0.0002564,0.0002598,0.0002558,0.005712,0.005712,0.005702,0.005702,0.005698,0.00549,0.005488,0.0055,0.0055,0.005498,0.002022,0.00202,0.002022,0.002022,0.002022,0.002042,0.002038,0.002036,0.002032,0.002032,0.003402,0.003402,0.003406,0.003404,0.00341,0.003434,0.003428,0.003428,0.003428,0.003422
618,0.000282,0.0002808,0.0002806,0.0002792,0.0002798,0.0002748,0.0002762,0.000275,0.0002754,0.0002736,0.00677,0.006774,0.006758,0.00676,0.006756,0.006534,0.006532,0.006544,0.00654,0.006538,0.0015218,0.0015216,0.0015242,0.0015254,0.0015244,0.001556,0.001553,0.001551,0.0015456,0.0015452,0.00245,0.002456,0.002454,0.002458,0.002456,0.002494,0.002484,0.002482,0.002482,0.00248
620,0.0003182,0.0003158,0.000316,0.000314,0.0003166,0.0003074,0.0003088,0.0003068,0.0003086,0.0003074,0.007654,0.007656,0.007642,0.007642,0.007638,0.007414,0.00741,0.007418,0.007414,0.007412,0.001046,0.0010474,0.0010486,0.0010496,0.0010496,0.0010844,0.0010818,0.0010796,0.0010754,0.0010746,0.0016448,0.001649,0.0016472,0.0016494,0.0016514,0.0016886,0.001679,0.0016796,0.0016792,0.0016786
622,0.0003762,0.0003736,0.000376,0.0003748,0.0003764,0.0003624,0.0003644,0.0003634,0.000364,0.0003636,0.00837,0.008368,0.008354,0.008356,0.00835,0.008134,0.008128,0.008136,0.008132,0.008128,0.0006646,0.0006656,0.000667,0.0006672,0.0006666,0.0006914,0.0006896,0.0006884,0.0006856,0.000685,0.0010184,0.001021,0.0010204,0.0010222,0.0010188,0.0010488,0.0010432,0.0010436,0.001043,0.001039
624,0.0004604,0.0004572,0.0004586,0.0004574,0.0004594,0.000442,0.000444,0.0004438,0.0004448,0.0004438,0.008844,0.008844,0.00883,0.008834,0.008828,0.00863,0.00862,0.008628,0.008624,0.008618,0.0004932,0.000494,0.0004934,0.0004948,0.0004932,0.0004942,0.000493,0.0004938,0.0004908,0.0004922,0.0006976,0.0006996,0.000702,0.000703,0.0006978,0.000701,0.0006956,0.0006976,0.0006986,0.0006972
626,0.0005834,0.0005806,0.0005824,0.0005814,0.0005814,0.0005604,0.0005608,0.0005598,0.0005624,0.00056,0.009066,0.00907,0.009056,0.009062,0.009054,0.008878,0.008868,0.008874,0.008872,0.008866,0.0005902,0.0005904,0.00059,0.0005902,0.0005892,0.0005606,0.000561,0.0005624,0.000561,0.000564,0.0007414,0.000744,0.0007448,0.000742,0.0007386,0.0007094,0.0007102,0.0007116,0.0007068,0.0007124
628,0.0007322,0.0007304,0.0007298,0.0007336,0.0007316,0.0007034,0.0007036,0.0007042,0.0007056,0.0007042,0.009016,0.009024,0.00901,0.009014,0.009008,0.008854,0.008842,0.008848,0.008848,0.008842,0.000871,0.0008708,0.0008702,0.0008708,0.0008688,0.000819,0.0008202,0.000822,0.0008218,0.0008246,0.0010276,0.0010216,0.001024,0.001023,0.0010184,0.0009708,0.0009694,0.0009722,0.0009722,0.0009756
630,0.000893,0.0008902,0.0008928,0.0008946,0.0008948,0.000862,0.000861,0.0008622,0.000863,0.0008646,0.008786,0.008792,0.00878,0.008786,0.00878,0.008644,0.008632,0.008638,0.008638,0.008632,0.001228,0.0012268,0.0012264,0.001226,0.0012238,0.0011582,0.0011588,0.0011622,0.0011624,0.0011656,0.0013962,0.0013916,0.0013978,0.0013942,0.0013886,0.0013256,0.0013244,0.0013312,0.0013264,0.0013314
632,0.001068,0.0010678,0.0010686,0.0010704,0.001069,0.0010304,0.001033,0.001034,0.001033,0.0010348,0.00843,0.008436,0.008426,0.00843,0.008424,0.008302,0.008294,0.0083,0.008302,0.008296,0.0016364,0.001636,0.0016362,0.0016358,0.0016336,0.0015518,0.0015528,0.0015572,0.0015568,0.00156,0.0018292,0.0018246,0.001832,0.0018264,0.0018226,0.0017426,0.001741,0.001748,0.0017454,0.0017502
634,0.0012518,0.0012514,0.0012536,0.001258,0.001252,0.0012108,0.001208,0.0012104,0.0012122,0.0012128,0.008006,0.008016,0.008002,0.008006,0.008002,0.007892,0.007886,0.007892,0.007896,0.00789,0.00208,0.002078,0.002078,0.002078,0.002076,0.0019808,0.0019834,0.0019866,0.0019864,0.0019908,0.002302,0.002292,0.002302,0.002292,0.002292,0.002196,0.002198,0.002204,0.002204,0.002208
636,0.0014504,0.0014468,0.0014486,0.0014538,0.0014494,0.0014048,0.0014018,0.0014068,0.0014094,0.001407,0.007512,0.00752,0.00751,0.007514,0.00751,0.007408,0.007402,0.007408,0.00741,0.007408,0.00257,0.002568,0.002568,0.002566,0.002564,0.00246,0.002464,0.002466,0.002468,0.002472,0.00282,0.002812,0.00282,0.002812,0.00281,0.002706,0.002712,0.002716,0.002712,0.002718
638,0.0016282,0.0016266,0.0016276,0.0016318,0.0016262,0.0015784,0.0015786,0.001579,0.0015836,0.001581,0.007068,0.007074,0.007064,0.007066,0.007064,0.006968,0.00696,0.006968,0.006966,0.006962,0.002998,0.002994,0.002996,0.002994,0.002992,0.002886,0.002888,0.00289,0.00289,0.002894,0.003264,0.00325,0.003264,0.003252,0.003252,0.003148,0.003148,0.00315,0.003154,0.003156
640,0.001794,0.0017934,0.0017918,0.0017966,0.0017884,0.001742,0.001741,0.0017408,0.0017434,0.0017422,0.006682,0.006686,0.006678,0.00668,0.006676,0.006584,0.006574,0.006584,0.00658,0.006574,0.003348,0.003344,0.003346,0.003344,0.003342,0.003238,0.003242,0.003242,0.003242,0.003244,0.003596,0.003586,0.003596,0.003584,0.003586,0.003486,0.003484,0.00349,0.003492,0.00349
642,0.0019402,0.0019428,0.0019416,0.0019448,0.001938,0.0018926,0.0018884,0.0018894,0.0018926,0.0018922,0.00633,0.00633,0.006324,0.006326,0.006322,0.006236,0.006224,0.006232,0.00623,0.006224,0.003604,0.0036,0.003602,0.003602,0.0036,0.003504,0.003506,0.003506,0.003504,0.003506,0.0038,0.003792,0.003802,0.00379,0.003794,0.0037,0.0037,0.0037,0.003704,0.003698
644,0.002082,0.002084,0.002084,0.002088,0.002082,0.002032,0.002028,0.00203,0.00203,0.002028,0.00602,0.006018,0.006012,0.006016,0.006012,0.00593,0.00592,0.005928,0.00592,0.005916,0.003776,0.00377,0.003774,0.003774,0.003772,0.003686,0.003686,0.003684,0.003684,0.003684,0.003894,0.003886,0.003894,0.003884,0.003892,0.00381,0.003802,0.003806,0.003804,0.003802
646,0.002234,0.002232,0.002234,0.00224,0.00223,0.002184,0.002178,0.00218,0.00218,0.002178,0.0057,0.005698,0.005694,0.005696,0.005694,0.005622,0.00561,0.005614,0.005612,0.005606,0.003834,0.00383,0.003834,0.003832,0.003834,0.003762,0.003762,0.003758,0.003758,0.003756,0.003866,0.003854,0.003866,0.003852,0.00386,0.003794,0.003788,0.00379,0.003794,0.003786
648,0.002354,0.002354,0.002354,0.00236,0.002354,0.002306,0.002298,0.002302,0.002306,0.002304,0.005452,0.005448,0.005444,0.005448,0.005448,0.005382,0.00537,0.005374,0.00537,0.005366,0.003728,0.003724,0.003728,0.003726,0.003728,0.00368,0.003676,0.003672,0.003672,0.003668,0.00367,0.003668,0.003668,0.00366,0.003666,0.003626,0.003616,0.003622,0.003618,0.003612
650,0.002452,0.002454,0.002456,0.002458,0.002452,0.002408,0.0024,0.002406,0.002406,0.002404,0.00521,0.005206,0.005204,0.005206,0.005204,0.005148,0.005136,0.00514,0.005138,0.005134,0.003454,0.003448,0.003452,0.003452,0.003456,0.003432,0.003428,0.003422,0.003422,0.003418,0.003332,0.003328,0.003334,0.003322,0.003332,0.003306,0.0033,0.003304,0.003304,0.003296
652,0.00252,0.002526,0.002522,0.002526,0.002518,0.002476,0.00247,0.002474,0.002474,0.002474,0.004944,0.004942,0.00494,0.00494,0.004938,0.00489,0.004878,0.004882,0.004876,0.004878,0.003062,0.003056,0.003058,0.003058,0.003062,0.003056,0.003052,0.003044,0.003046,0.003044,0.00294,0.002936,0.002942,0.002928,0.002942,0.002922,0.002912,0.002914,0.00292,0.002916
654,0.002562,0.00257,0.00257,0.002572,0.002564,0.002528,0.002518,0.00252,0.00252,0.00252,0.004678,0.004676,0.004674,0.004674,0.004672,0.004626,0.004614,0.00462,0.004618,0.004618,0.002672,0.002668,0.00267,0.00267,0.002672,0.002672,0.002668,0.002664,0.002664,0.00266,0.002598,0.002594,0.002604,0.00259,0.002598,0.002574,0.002566,0.002574,0.002576,0.00257
656,0.002608,0.002612,0.002612,0.002618,0.002606,0.002568,0.002562,0.002564,0.002568,0.002566,0.00442,0.004416,0.004414,0.004416,0.004416,0.004372,0.004358,0.004366,0.00436,0.004364,0.002354,0.00235,0.002352,0.002352,0.002354,0.002344,0.002344,0.00234,0.002342,0.00234,0.00233,0.002328,0.002334,0.002324,0.002334,0.002302,0.002302,0.002304,0.002312,0.002306
658,0.002648,0.00265,0.002648,0.002652,0.002648,0.002604,0.002604,0.002604,0.002604,0.002606,0.004228,0.004224,0.004222,0.004224,0.00422,0.004178,0.004164,0.004172,0.004172,0.004176,0.002124,0.00212,0.002124,0.002122,0.002126,0.002118,0.002116,0.002112,0.002114,0.002112,0.002126,0.002128,0.002126,0.002116,0.002132,0.002102,0.0021,0.00211,0.00211,0.002104
660,0.002676,0.002682,0.002678,0.002682,0.002676,0.002634,0.002636,0.002634,0.002634,0.002638,0.004054,0.004048,0.004046,0.00405,0.004046,0.004004,0.003996,0.004002,0.004004,0.00401,0.001879,0.001873,0.0018764,0.001874,0.0018784,0.0018776,0.0018758,0.0018724,0.0018754,0.0018732,0.0018838,0.001889,0.0018864,0.0018782,0.0018904,0.0018724,0.0018716,0.0018774,0.0018764,0.0018754
662,0.002678,0.002684,0.002684,0.002684,0.002678,0.00264,0.002644,0.00264,0.002642,0.002644,0.003876,0.00387,0.003868,0.003874,0.003866,0.003832,0.003826,0.003832,0.00383,0.003838,0.0016226,0.001618,0.0016206,0.001619,0.0016234,0.0016236,0.001625,0.001622,0.0016248,0.0016198,0.0016342,0.0016418,0.0016366,0.0016314,0.0016416,0.0016254,0.001628,0.0016306,0.001636,0.0016304
664,0.002616,0.002616,0.00262,0.002622,0.002618,0.002588,0.00259,0.002586,0.00259,0.002588,0.00364,0.003636,0.003632,0.003634,0.00363,0.003606,0.003598,0.003604,0.003606,0.003608,0.0014228,0.001419,0.0014198,0.0014186,0.0014242,0.0014216,0.0014224,0.0014172,0.0014216,0.0014186,0.0014464,0.001453,0.0014512,0.0014456,0.0014576,0.0014336,0.001438,0.0014458,0.001448,0.0014402
666,0.002444,0.002448,0.002448,0.002452,0.002448,0.00243,0.002432,0.002426,0.002428,0.00243,0.003298,0.003296,0.003296,0.003296,0.00329,0.003282,0.003276,0.00328,0.00328,0.003286,0.001302,0.0012974,0.0012992,0.0012976,0.0013026,0.001298,0.0012988,0.0012946,0.0012992,0.0012958,0.001339,0.0013444,0.00134,0.0013322,0.0013454,0.001323,0.0013294,0.0013376,0.0013316,0.0013262
668,0.002226,0.002234,0.00223,0.002232,0.002228,0.002218,0.002222,0.002218,0.002212,0.002218,0.002932,0.002926,0.002928,0.00293,0.002924,0.002926,0.002918,0.002924,0.002926,0.002926,0.0011684,0.0011646,0.0011664,0.0011642,0.0011686,0.0011736,0.0011734,0.0011706,0.001174,0.0011708,0.0011966,0.0012082,0.0012026,0.0011962,0.0012072,0.0012004,0.0012054,0.0012046,0.001206,0.001201
670,0.00202,0.002026,0.002024,0.002022,0.002022,0.002014,0.00202,0.002012,0.002012,0.002016,0.002596,0.002592,0.00259,0.002594,0.00259,0.002592,0.002588,0.002588,0.002588,0.00259,0.0009384,0.0009362,0.0009372,0.0009366,0.0009404,0.0009588,0.0009588,0.0009554,0.0009556,0.0009528,0.0009612,0.0009678,0.0009636,0.0009616,0.0009692,0.0009708,0.0009788,0.00098,0.000978,0.000979
672,0.0018642,0.0018692,0.0018658,0.0018638,0.0018652,0.0018542,0.0018636,0.0018534,0.001853,0.0018582,0.002328,0.002326,0.002318,0.002324,0.002318,0.002324,0.002322,0.002314,0.00232,0.002324,0.0006346,0.0006332,0.0006334,0.0006326,0.000637,0.0006636,0.000663,0.0006596,0.00066,0.0006558,0.0006542,0.0006644,0.0006588,0.0006598,0.0006674,0.0006686,0.000679,0.000678,0.0006804,0.0006764
674,0.0017184,0.0017258,0.001718,0.001723,0.00172,0.0017184,0.0017262,0.0017168,0.0017134,0.0017166,0.002082,0.002082,0.002078,0.00208,0.002078,0.002086,0.00208,0.002078,0.002078,0.002084,0.0003378,0.0003358,0.0003376,0.0003368,0.0003408,0.0003588,0.000361,0.0003562,0.0003576,0.0003546,0.0003612,0.0003708,0.0003666,0.0003642,0.000372,0.0003672,0.0003766,0.0003782,0.0003782,0.0003794
676,0.0015616,0.0015646,0.00156,0.0015642,0.0015626,0.0015674,0.001571,0.001563,0.0015618,0.0015656,0.0018494,0.0018524,0.0018472,0.0018482,0.0018466,0.0018606,0.001858,0.0018524,0.0018548,0.0018564,0.0001931,0.00019148,0.00019254,0.00019138,0.00019458,0.0002028,0.0002034,0.0002014,0.000201,0.00019936,0.0002206,0.000231,0.0002246,0.0002262,0.0002356,0.0002202,0.000231,0.0002336,0.0002288,0.0002308
678,0.001376,0.0013798,0.0013748,0.0013778,0.00138,0.0013836,0.001392,0.0013788,0.001379,0.0013884,0.0016052,0.0016076,0.0016038,0.0016068,0.0016036,0.0016182,0.001616,0.0016114,0.0016112,0.0016174,0.00014074,0.00014078,0.00014016,0.00013866,0.0001435,0.00014378,0.00014434,0.00014366,0.00014428,0.00014114,0.00017302,0.00017724,0.00017034,0.00018098,0.00017886,0.00016968,0.00017748,0.00017542,0.00017468,0.00018428
680,0.0012212,0.0012266,0.0012194,0.001219,0.0012244,0.0012212,0.001229,0.0012166,0.0012198,0.0012256,0.0014054,0.0014074,0.0014048,0.0014038,0.0014012,0.0014084,0.0014106,0.0014038,0.0014046,0.0014126,0.00012502,0.00012522,0.00012482,0.00012316,0.00012748,0.00012562,0.00012474,0.00012456,0.00012468,0.0001225,0.00015802,0.00016288,0.00015476,0.00016568,0.00016612,0.0001502,0.00016432,0.00015754,0.00015772,0.00016544
682,0.0011344,0.0011346,0.00113,0.0011278,0.0011322,0.001129,0.0011326,0.0011184,0.0011246,0.0011268,0.0012886,0.0012922,0.0012878,0.0012904,0.0012824,0.0012838,0.0012854,0.001279,0.0012826,0.0012912,0.00011958,0.0001195,0.00011936,0.00011868,0.00012148,0.00011824,0.00011942,0.0001197,0.00011924,0.0001167,0.0001531,0.0001577,0.00014886,0.00016294,0.00015936,0.00014418,0.00016284,0.0001537,0.00015836,0.00016196
684,0.0010506,0.0010576,0.0010448,0.0010448,0.001054,0.0010478,0.0010496,0.001038,0.0010396,0.0010516,0.0011916,0.0011912,0.0011868,0.0011954,0.0011848,0.001185,0.0011884,0.0011818,0.0011888,0.001191,0.00011636,0.00011582,0.00011562,0.0001143,0.00011808,0.00011354,0.00011512,0.00011556,0.0001138,0.00011456,0.0001504,0.00015966,0.00014708,0.00015696,0.00015942,0.00014098,0.0001605,0.00014918,0.00015242,0.00015826
686,0.0008932,0.0008992,0.0008906,0.0008874,0.0008946,0.0008996,0.0009066,0.0008894,0.0008926,0.0009034,0.0010128,0.0010148,0.0010112,0.0010148,0.00101,0.0010164,0.0010202,0.001013,0.0010182,0.0010234,0.0001104,0.00011148,0.00011154,0.00010922,0.0001129,0.000109,0.0001104,0.00011112,0.00010952,0.00011046,0.00014646,0.0001516,0.00014596,0.00015178,0.00015468,0.00014116,0.00015674,0.00014376,0.00014462,0.00015662
688,0.000656,0.0006604,0.0006576,0.0006518,0.0006566,0.0006708,0.0006766,0.0006608,0.0006634,0.0006734,0.000751,0.0007524,0.0007502,0.000754,0.0007458,0.0007602,0.0007674,0.0007592,0.000763,0.0007676,0.00010386,0.0001059,0.00010606,0.00010424,0.00010732,0.00010406,0.00010506,0.00010426,0.00010444,0.000104,0.00013932,0.00014176,0.00013996,0.00014748,0.00014886,0.00013612,0.00014868,0.0001409,0.00014068,0.00015296
690,0.0004148,0.0004162,0.0004116,0.0004066,0.0004158,0.000429,0.0004334,0.0004208,0.0004244,0.0004316,0.0004786,0.00048,0.0004802,0.0004844,0.0004734,0.0004878,0.0004974,0.00049,0.0004914,0.0004976,9.708e-05,0.00010062,9.868e-05,9.868e-05,0.00010156,9.828e-05,9.896e-05,9.908e-05,9.868e-05,9.874e-05,0.00013078,0.00013804,0.00013284,0.0001396,0.00014372,0.00012958,0.00014378,0.00013536,0.0001326,0.00014836
692,0.000233,0.0002342,0.0002252,0.0002228,0.000236,0.0002372,0.0002382,0.000236,0.0002358,0.0002434,0.0002734,0.0002744,0.000274,0.0002784,0.0002734,0.0002758,0.00028,0.0002784,0.0002806,0.0002826,9.194e-05,9.446e-05,9.528e-05,9.394e-05,9.516e-05,9.32e-05,9.424e-05,9.532e-05,9.294e-05,9.388e-05,0.00013368,0.00012692,0.00013128,0.00013668,0.00014446,0.0001283,0.00013942,0.00013346,0.00012726,0.00013386
694,0.0001575,0.00015788,0.00015202,0.00014768,0.00015624,0.00015352,0.0001581,0.00015206,0.00015648,0.00016404,0.00018582,0.0001885,0.00018552,0.00019164,0.00018184,0.00018428,0.00018896,0.00018518,0.00019006,0.0001921,8.674e-05,9e-05,8.876e-05,8.816e-05,9.174e-05,8.864e-05,8.9e-05,9.064e-05,9e-05,8.834e-05,0.0001332,0.0001281,0.0001272,0.00013762,0.00013206,0.00013084,0.00014002,0.0001238,0.00012334,0.00013606
696,0.00013268,0.00013638,0.00012632,0.00012338,0.00013274,0.00013068,0.0001314,0.00012536,0.0001334,0.00013222,0.000159,0.00015628,0.00015644,0.00016134,0.0001539,0.00014854,0.0001565,0.00015292,0.0001591,0.0001605,8.11e-05,8.366e-05,8.512e-05,8.232e-05,8.694e-05,8.22e-05,8.514e-05,8.608e-05,8.368e-05,8.272e-05,0.0001232,0.00012222,0.00013028,0.00013044,0.00012728,0.0001182,0.000132,0.00011612,0.00011712,0.00013264
698,0.00012244,0.00012972,0.00011416,0.00010888,0.00012222,0.00012264,0.0001185,0.0001167,0.0001223,0.00012422,0.00014564,0.00014002,0.0001444,0.00014592,0.00014168,0.0001367,0.00014592,0.00013674,0.00014436,0.00014372,7.676e-05,8.012e-05,8.028e-05,7.72e-05,8.152e-05,7.854e-05,8.052e-05,8.164e-05,7.902e-05,7.92e-05,0.00011784,0.00011894,0.0001219,0.00012914,0.00012308,0.00011854,0.0001266,0.000113,0.00011636,0.00012528
700,0.0001121,0.00011438,0.00011012,0.0001028,0.00011416,0.00011286,0.00011276,0.00010836,0.00011362,0.00011516,0.00013242,0.00012976,0.0001337,0.00013334,0.00013286,0.00012778,0.00013104,0.00012778,0.00013336,0.00013608,7.188e-05,7.606e-05,7.722e-05,7.402e-05,7.728e-05,7.46e-05,7.588e-05,7.782e-05,7.706e-05,7.488e-05,0.00012234,0.00011094,0.00011932,0.00012272,0.00012004,0.00011688,0.00011734,0.00011462,0.00011212,0.00012572
702,0.00010506,0.00010542,0.0001019,9.454e-05,0.0001065,0.00010214,0.0001105,0.00010984,0.00010862,0.0001044,0.00012278,0.0001202,0.00012536,0.00012564,0.00012296,0.00011774,0.0001224,0.0001157,0.00012118,0.00012164,6.782e-05,6.928e-05,7.134e-05,6.884e-05,7.202e-05,7.042e-05,7.326e-05,7.26e-05,7.34e-05,6.836e-05,0.00011958,0.00010888,0.0001182,0.00011428,0.00010866,0.00010722,0.0001185,0.00010914,0.0001121,0.0001234
704,0.00010052,9.886e-05,9.834e-05,8.722e-05,0.00010152,9.568e-05,0.00010198,0.00010102,0.0001072,0.00010108,0.0001147,0.00011148,0.0001157,0.00012022,0.00011522,0.00010784,0.00011632,0.00011238,0.00011734,0.00011652,6.252e-05,6.616e-05,6.69e-05,6.38e-05,6.662e-05,6.552e-05,6.832e-05,6.852e-05,6.836e-05,6.73e-05,0.00011546,0.00010098,0.00011574,0.00011374,0.00010682,0.00010854,0.00011686,0.0001055,0.00010412,0.00010918
706,9.586e-05,9.314e-05,9.096e-05,8.846e-05,9.484e-05,8.816e-05,9.564e-05,9.736e-05,9.886e-05,9.314e-05,0.00010932,0.00010446,0.00010994,0.00011338,0.00011146,0.00010462,0.00010856,0.00010888,0.00011,0.00010634,5.918e-05,6.078e-05,6.3e-05,6.048e-05,6.188e-05,6.272e-05,6.4e-05,6.424e-05,6.44e-05,6.418e-05,0.00010826,9.812e-05,0.0001119,0.00011252,0.0001062,0.00010792,0.00010672,0.00010342,9.858e-05,0.00010648
708,9.584e-05,8.742e-05,9e-05,8.058e-05,9.164e-05,8.43e-05,9.59e-05,9.202e-05,9.588e-05,8.722e-05,0.00010346,9.798e-05,0.00010406,0.00010436,0.0001065,0.00010046,0.00010314,0.00010022,0.0001068,0.0001057,5.474e-05,5.728e-05,5.85e-05,5.672e-05,5.778e-05,5.906e-05,6.052e-05,6.102e-05,6.134e-05,6.04e-05,0.00010744,9.226e-05,0.0001092,0.0001088,9.83e-05,0.0001032,0.0001032,0.0001019,9.642e-05,0.00010216
710,8.552e-05,8.154e-05,8.476e-05,7.994e-05,8.634e-05,8.43e-05,9.322e-05,9.382e-05,9.152e-05,8.514e-05,9.956e-05,9.744e-05,0.00010154,0.00010048,0.0001034,9.168e-05,9.87e-05,9.924e-05,0.00010298,9.928e-05,5.214e-05,5.52e-05,5.4e-05,5.414e-05,5.54e-05,5.672e-05,5.506e-05,5.732e-05,5.884e-05,5.506e-05,9.94e-05,8.492e-05,0.00010722,0.00010858,8.52e-05,9.634e-05,9.924e-05,9.5e-05,9.456e-05,9.706e-05
712,8.084e-05,8.356e-05,8.73e-05,7.636e-05,8.27e-05,7.844e-05,8.484e-05,9.094e-05,8.71e-05,7.744e-05,9.488e-05,9.434e-05,9.892e-05,9.436e-05,9.946e-05,9.386e-05,9.826e-05,9.576e-05,9.746e-05,9.71e-05,4.728e-05,5.152e-05,5.198e-05,5.32e-05,4.99e-05,5.418e-05,5.28e-05,5.434e-05,5.664e-05,5.342e-05,9.482e-05,9.314e-05,0.00010518,0.00010068,8.308e-05,8.978e-05,9.898e-05,9.818e-05,8.596e-05,9.438e-05
714,8.28e-05,7.784e-05,8.408e-05,7.446e-05,7.756e-05,7.85e-05,7.548e-05,8.85e-05,8.336e-05,7.55e-05,9.634e-05,9.146e-05,9.572e-05,8.984e-05,0.0001012,8.826e-05,9.418e-05,9.392e-05,9.234e-05,9.15e-05,4.474e-05,4.874e-05,4.9e-05,5.042e-05,4.702e-05,5.15e-05,4.994e-05,5.118e-05,5.406e-05,4.928e-05,9.692e-05,8.77e-05,0.00010126,9.14e-05,7.844e-05,8.572e-05,9.254e-05,9.19e-05,8.248e-05,8.706e-05
716,8.228e-05,7.142e-05,7.856e-05,7.106e-05,7.426e-05,7.006e-05,7.396e-05,8.254e-05,7.6e-05,7.06e-05,8.934e-05,8.582e-05,9.094e-05,8.396e-05,9.694e-05,8.558e-05,9.114e-05,8.976e-05,9.11e-05,8.654e-05,4.448e-05,4.654e-05,4.596e-05,4.78e-05,4.384e-05,5.008e-05,4.726e-05,4.838e-05,5.08e-05,4.676e-05,8.516e-05,8.134e-05,9.624e-05,8.51e-05,7.558e-05,8.97e-05,8.436e-05,9.258e-05,8.418e-05,7.708e-05
718,7.626e-05,6.632e-05,7.352e-05,6.658e-05,6.874e-05,6.436e-05,6.898e-05,7.466e-05,7.24e-05,6.532e-05,8.654e-05,7.954e-05,8.706e-05,7.886e-05,9.378e-05,8.992e-05,8.506e-05,8.468e-05,8.53e-05,8.062e-05,4.058e-05,4.31e-05,4.292e-05,4.44e-05,4.126e-05,4.868e-05,4.514e-05,4.6e-05,4.818e-05,4.48e-05,8.498e-05,7.112e-05,8.786e-05,8.316e-05,7.586e-05,8.696e-05,7.462e-05,7.994e-05,8.442e-05,7.916e-05
720,7.282e-05,5.852e-05,6.67e-05,6.054e-05,5.596e-05,5.894e-05,6.348e-05,6.606e-05,6.554e-05,5.902e-05,8.012e-05,7.44e-05,8.532e-05,7.996e-05,8.478e-05,8.168e-05,7.892e-05,8.35e-05,8.242e-05,7.26e-05,3.966e-05,3.98e-05,4.106e-05,4.384e-05,3.99e-05,4.66e-05,4.712e-05,4.538e-05,4.476e-05,4.182e-05,8.638e-05,7.042e-05,8.14e-05,7.274e-05,7.364e-05,8.408e-05,6.492e-05,8.288e-05,7.244e-05,7.092e-05
722,7.438e-05,5.558e-05,6.668e-05,5.652e-05,5.476e-05,4.93e-05,5.62e-05,6.428e-05,6.094e-05,5.834e-05,7.688e-05,6.928e-05,7.84e-05,7.188e-05,8.638e-05,7.802e-05,7.1e-05,8.076e-05,7.406e-05,7.19e-05,3.69e-05,3.918e-05,3.8e-05,4.222e-05,3.684e-05,4.374e-05,4.266e-05,4.388e-05,4.298e-05,4.054e-05,7.596e-05,6.946e-05,8.53e-05,6.588e-05,6.484e-05,8.346e-05,5.932e-05,7.088e-05,7.102e-05,6.634e-05
724,6.412e-05,5.3e-05,6.184e-05,5.778e-05,5.202e-05,4.096e-05,5.22e-05,6.194e-05,5.858e-05,5.266e-05,7.352e-05,6.738e-05,7.36e-05,7.016e-05,8.436e-05,7.494e-05,6.934e-05,7.664e-05,7.22e-05,6.912e-05,3.62e-05,3.718e-05,3.648e-05,4.074e-05,3.54e-05,4.448e-05,4.002e-05,4.092e-05,4.314e-05,3.962e-05,7.572e-05,6.236e-05,8.13e-05,6.76e-05,6.768e-05,7.316e-05,5.658e-05,7.472e-05,7.404e-05,6.284e-05
726,5.926e-05,5.166e-05,6.502e-05,5.59e-05,4.14e-05,4.314e-05,4.924e-05,6.452e-05,5.17e-05,4.328e-05,7.236e-05,6.862e-05,7.286e-05,6.342e-05,7.72e-05,7.25e-05,6.584e-05,7.43e-05,6.348e-05,6.342e-05,3.546e-05,3.56e-05,3.64e-05,3.842e-05,3.36e-05,4.232e-05,4.1e-05,4.012e-05,4.004e-05,3.788e-05,6.956e-05,7.186e-05,8.056e-05,6.568e-05,6.448e-05,7.198e-05,5.94e-05,6.16e-05,7.002e-05,5.334e-05
728,6.032e-05,5.582e-05,5.546e-05,4.84e-05,3.49e-05,2.614e-05,4.616e-05,5.74e-05,4.474e-05,4.864e-05,7.168e-05,6.864e-05,6.954e-05,6.44e-05,7.856e-05,6.778e-05,6.48e-05,7.764e-05,6.698e-05,6.316e-05,3.462e-05,3.672e-05,3.382e-05,3.954e-05,3.524e-05,4.43e-05,3.92e-05,3.828e-05,4.058e-05,4.014e-05,6.036e-05,6.232e-05,8.116e-05,4.796e-05,6.012e-05,7.288e-05,5.66e-05,6.218e-05,7.644e-05,4.898e-05
730,5.684e-05,4.722e-05,4.434e-05,4.604e-05,3.798e-05,2.708e-05,4.206e-05,6.018e-05,4.666e-05,4.564e-05,7.206e-05,6.438e-05,6.762e-05,5.764e-05,7.416e-05,6.798e-05,5.818e-05,7.898e-05,6.488e-05,6.516e-05,3.73e-05,3.226e-05,3.236e-05,4.03e-05,3.48e-05,4.174e-05,3.946e-05,3.852e-05,3.84e-05,3.996e-05,5.434e-05,6.1e-05,7.514e-05,5.806e-05,6.734e-05,7.266e-05,4.982e-05,6.158e-05,7.564e-05,4.916e-05
732,5.562e-05,4.184e-05,4.422e-05,5.14e-05,3.228e-05,2.722e-05,3.482e-05,4.656e-05,3.49e-05,4.476e-05,6.79e-05,6.174e-05,6.924e-05,5.298e-05,7.064e-05,6.482e-05,6.184e-05,8.036e-05,6.106e-05,6.252e-05,3.778e-05,3.208e-05,3.314e-05,3.938e-05,3.372e-05,4.154e-05,3.844e-05,3.696e-05,3.914e-05,4.05e-05,4.792e-05,6.296e-05,7.246e-05,5.896e-05,7.056e-05,7.402e-05,4.936e-05,6.052e-05,7.81e-05,4.458e-05
734,4.95e-05,3.47e-05,4.258e-05,4.214e-05,2.534e-05,3.062e-05,2.948e-05,3.508e-05,3.682e-05,4.842e-05,6.364e-05,5.858e-05,6.194e-05,5.164e-05,7.308e-05,6.376e-05,5.588e-05,7.134e-05,5.622e-05,6.296e-05,3.722e-05,3.294e-05,3.08e-05,3.638e-05,3.062e-05,3.876e-05,3.668e-05,3.514e-05,3.678e-05,4.008e-05,3.848e-05,4.926e-05,7.92e-05,4.278e-05,7.218e-05,6.736e-05,4.618e-05,5.056e-05,7.168e-05,4.466e-05
736,4.768e-05,3.37e-05,3.856e-05,4.182e-05,2.036e-05,3.074e-05,2.26e-05,4.366e-05,2.978e-05,3.37e-05,6.26e-05,5.9e-05,5.764e-05,5.156e-05,6.754e-05,6.188e-05,6.076e-05,7.73e-05,5.244e-05,5.896e-05,3.228e-05,2.734e-05,3.13e-05,3.658e-05,2.774e-05,3.904e-05,3.46e-05,3.23e-05,3.072e-05,3.804e-05,3.738e-05,5.074e-05,6.568e-05,5.06e-05,6.94e-05,4.948e-05,4.306e-05,5.342e-05,6.516e-05,3.826e-05
738,2.994e-05,2.736e-05,3.776e-05,3.98e-05,1.4792e-05,2.674e-05,2.044e-05,3.006e-05,2.62e-05,2.872e-05,5.93e-05,5.39e-05,5.296e-05,5.174e-05,5.812e-05,6.048e-05,5.666e-05,7.294e-05,4.776e-05,5.286e-05,3.028e-05,2.558e-05,2.592e-05,3.214e-05,2.494e-05,3.55e-05,2.716e-05,2.776e-05,2.674e-05,3.522e-05,3.654e-05,4.41e-05,6.42e-05,4.754e-05,5.91e-05,4.326e-05,3.858e-05,4.91e-05,6.074e-05,3.804e-05
740,2.644e-05,3.364e-05,3.55e-05,3.612e-05,1.3776e-05,2.032e-05,2.24e-05,2.478e-05,1.9626e-05,2.752e-05,5.504e-05,5.584e-05,4.768e-05,4.638e-05,5.542e-05,5.932e-05,5.562e-05,6.914e-05,4.512e-05,6.1e-05,2.824e-05,2.32e-05,1.9974e-05,2.65e-05,2.142e-05,3.458e-05,2.928e-05,2.706e-05,2.478e-05,3.158e-05,1.9042e-05,5.014e-05,6.696e-05,3.684e-05,5.912e-05,3.432e-05,4.932e-05,3.972e-05,5.904e-05,3.608e-05
742,2.752e-05,3.394e-05,1.8532e-05,2.742e-05,4.496e-06,8.466e-06,1.8684e-05,2.82e-05,2.592e-05,2.65e-05,5.516e-05,5.296e-05,4.516e-05,4.758e-05,5.064e-05,5.462e-05,5.412e-05,6.802e-05,4.656e-05,5.692e-05,2.38e-05,2.046e-05,1.9826e-05,2.626e-05,2.096e-05,3.116e-05,2.698e-05,2.742e-05,2.364e-05,2.942e-05,2.138e-05,5.228e-05,5.706e-05,2.17e-05,5.646e-05,3.7e-05,5.13e-05,4.392e-05,4.958e-05,3.356e-05
744,1.2338e-05,1.84e-05,1.4428e-05,3.502e-05,0,3.806e-06,7.08e-06,1.7822e-05,2.614e-05,2.764e-05,5.008e-05,5.294e-05,4.478e-05,4.504e-05,5.338e-05,5.8e-05,4.57e-05,7.204e-05,4.278e-05,5.086e-05,2.406e-05,1.8474e-05,1.9624e-05,2.112e-05,1.869e-05,3.032e-05,2.662e-05,2.148e-05,2.264e-05,3.154e-05,2.142e-05,4.836e-05,4.19e-05,2.736e-05,4.978e-05,3.606e-05,5.97e-05,5.506e-05,5.436e-05,2.09e-05
746,1.1626e-05,1.0256e-05,1.6726e-05,2.386e-05,0,1.008e-05,7.828e-06,2.262e-05,2.398e-05,2.312e-05,5.008e-05,4.922e-05,4.526e-05,5.596e-05,4.704e-05,5.768e-05,5.624e-05,6.34e-05,4.826e-05,5.872e-05,2.074e-05,1.619e-05,1.6146e-05,2.032e-05,1.4882e-05,2.688e-05,2.392e-05,2.086e-05,1.8592e-05,2.64e-05,1.5856e-05,3.732e-05,4.38e-05,2.118e-05,5.542e-05,2.924e-05,4.718e-05,2.754e-05,4.994e-05,2.178e-05
748,1.4892e-05,1.7458e-05,2.288e-05,1.8478e-05,0,1.0614e-05,1.7882e-05,2.032e-05,2.586e-05,2.24e-05,4.916e-05,5.114e-05,4.162e-05,5.848e-05,4.3e-05,5.958e-05,5.466e-05,6.158e-05,3.982e-05,6.418e-05,2.35e-05,1.5396e-05,1.4254e-05,1.9894e-05,1.3988e-05,2.518e-05,2.262e-05,1.9634e-05,1.8758e-05,2.466e-05,1.6346e-05,3.952e-05,4.636e-05,3.008e-05,6.136e-05,2.564e-05,5.148e-05,3.39e-05,4.768e-05,2.698e-05
750,1.0988e-05,1.9384e-05,1.432e-05,1.5026e-05,0,1.411e-05,1.19e-05,1.9416e-05,3.306e-05,2.898e-05,5.304e-05,5.586e-05,4.254e-05,5.924e-05,4.34e-05,6.264e-05,5.896e-05,6.444e-05,4.53e-05,5.746e-05,2.244e-05,1.6492e-05,1.6332e-05,1.8968e-05,1.4712e-05,2.716e-05,2.126e-05,1.962e-05,1.8078e-05,2.61e-05,2.656e-05,3.48e-05,4.56e-05,2.318e-05,5.626e-05,2.16e-05,4.58e-05,3.07e-05,4.538e-05,3.07e-05
752,2.998e-05,2.044e-05,3.274e-05,7.548e-06,0,8.344e-06,1.2788e-05,7.166e-06,3.634e-05,2.334e-05,5.584e-05,5.844e-05,3.364e-05,5.122e-05,4.506e-05,5.222e-05,6.446e-05,6.322e-05,4.564e-05,5.986e-05,2.26e-05,1.7968e-05,1.8344e-05,2.092e-05,1.2706e-05,2.504e-05,2.366e-05,2.084e-05,1.3886e-05,2.51e-05,1.9602e-05,2.75e-05,4.404e-05,2.836e-05,5.8e-05,2.64e-05,6.646e-05,2.57e-05,5.062e-05,4.696e-05
754,1.2016e-05,1.0004e-05,2.328e-05,2.026e-05,0,6.254e-06,1.3894e-05,2.83e-06,3.646e-05,3.486e-05,5.788e-05,6.018e-05,4.852e-05,5.298e-05,4.482e-05,5.492e-05,5.336e-05,7.442e-05,4.394e-05,5.986e-05,1.9556e-05,1.6848e-05,2.022e-05,1.8812e-05,1.4838e-05,2.926e-05,2.52e-05,1.9196e-05,1.3542e-05,3.03e-05,2.608e-05,4.532e-05,3.83e-05,1.479e-05,5.704e-05,2.346e-05,5.476e-05,5.094e-05,5.646e-05,3.42e-05
756,1.4534e-05,1.3422e-05,1.5772e-05,3.018e-05,1.984e-06,1.8314e-05,2.212e-05,6.558e-06,4.678e-05,3.886e-05,5.626e-05,5.672e-05,4.878e-05,5.338e-05,4.342e-05,4.928e-05,6.192e-05,6.364e-05,4.974e-05,5.562e-05,2.014e-05,1.664e-05,1.9568e-05,1.5962e-05,1.4916e-05,2.744e-05,2.446e-05,2.054e-05,1.6302e-05,2.864e-05,2.062e-05,4.008e-05,5.524e-05,1.2054e-05,5.356e-05,2.524e-05,6.516e-05,4.672e-05,5.308e-05,3.514e-05
758,1.4564e-05,2.184e-05,6.544e-06,1.89e-05,1.4496e-06,1.3304e-05,2.958e-05,1.2538e-05,4.95e-05,3.394e-05,5.304e-05,5.902e-05,4.228e-05,6.24e-05,3.898e-05,4.658e-05,5.26e-05,4.992e-05,5.822e-05,6.22e-05,1.6928e-05,1.9246e-05,1.4388e-05,1.4618e-05,1.5578e-05,2.574e-05,2.486e-05,2.164e-05,2.188e-05,2.698e-05,2.69e-05,3.65e-05,5.662e-05,1.4394e-05,7.016e-05,3.77e-05,7.268e-05,1.838e-05,4.826e-05,3.492e-05
760,2.89e-05,1.8182e-05,1.5628e-05,1.7388e-05,7.38e-06,1.2342e-05,2.838e-05,1.438e-05,3.778e-05,2.814e-05,4.766e-05,6.188e-05,3.774e-05,6.312e-05,5.186e-05,4.826e-05,4.544e-05,6.336e-05,5.444e-05,5.846e-05,1.7542e-05,1.958e-05,1.9888e-05,1.0214e-05,1.8648e-05,2.806e-05,2.216e-05,1.9708e-05,2.378e-05,2.702e-05,2.636e-05,4.46e-05,5.044e-05,1.1906e-05,7.746e-05,4.456e-05,7.544e-05,4.112e-05,5.594e-05,4.1e-05
762,1.927e-05,4.89e-06,1.1508e-05,1.9306e-05,1.0404e-05,1.8342e-05,3.376e-05,1.3422e-05,4.776e-05,3.612e-05,5.912e-05,4.84e-05,4.56e-05,6.138e-05,4.514e-05,5.852e-05,5.746e-05,6.642e-05,5.65e-05,6.492e-05,2.018e-05,1.6522e-05,2.496e-05,1.1912e-05,1.3652e-05,2.716e-05,2.646e-05,2.254e-05,2.454e-05,2.154e-05,1.5234e-05,5.808e-05,5.232e-05,7.126e-06,6.362e-05,7.2e-05,7.146e-05,4.49e-05,4.314e-05,2.572e-05
764,1.2626e-05,1.225e-05,1.771e-05,2.134e-05,3.046e-05,1.9972e-05,4.946e-05,1.7854e-05,6.03e-05,4.238e-05,4.51e-05,4.632e-05,3.964e-05,6.45e-05,4.208e-05,5.602e-05,5.52e-05,6.95e-05,5.392e-05,5.952e-05,2.268e-05,1.8364e-05,2.252e-05,1.018e-05,1.658e-05,3.106e-05,2.768e-05,2.106e-05,2.594e-05,2.116e-05,5.076e-05,6.626e-05,4.04e-05,1.6452e-05,7.406e-05,7.982e-05,8.732e-05,4.45e-05,5.518e-05,3.998e-05
766,4.698e-06,1.1174e-05,2.028e-05,2.724e-05,2.272e-05,2.858e-05,4.816e-05,1.5266e-05,6.348e-05,4.816e-05,4.318e-05,5.508e-05,4.828e-05,5.738e-05,4.334e-05,5.532e-05,5.636e-05,6.724e-05,5.314e-05,6.166e-05,1.8648e-05,1.4916e-05,1.926e-05,7.646e-06,2.002e-05,3.126e-05,2.772e-05,2.038e-05,2.116e-05,2.292e-05,6.958e-05,8.232e-05,6.254e-05,3.84e-05,6.474e-05,8.6e-05,8.7e-05,6.09e-05,6.358e-05,5.488e-05
768,1.8286e-05,2.854e-06,2.248e-05,4.814e-05,3.758e-05,2.67e-05,5.15e-05,2.884e-05,6.526e-05,5.066e-05,4.988e-05,7.316e-05,5.814e-05,6.244e-05,3.884e-05,5.508e-05,5.686e-05,5.292e-05,5.514e-05,5.226e-05,1.4916e-05,1.9794e-05,2.214e-05,7.93e-06,1.4616e-05,3.67e-05,3.424e-05,2.194e-05,2.846e-05,2.504e-05,6.222e-05,7.846e-05,5.218e-05,3.64e-05,6.112e-05,8.112e-05,8.49e-05,6.104e-05,4.734e-05,5.65e-05
770,1.6532e-05,4.484e-06,2.592e-05,2.826e-05,4.796e-05,3.726e-05,6.312e-05,4.546e-05,6.766e-05,4.004e-05,3.818e-05,5.272e-05,4.74e-05,5.192e-05,3.598e-05,5.352e-05,3.934e-05,6.462e-05,6.86e-05,6.204e-05,1.943e-05,2.634e-05,2.312e-05,1.1426e-05,1.8966e-05,3.138e-05,3.07e-05,2.18e-05,3.122e-05,2.504e-05,8.296e-05,6.25e-05,7.292e-05,2.542e-05,7.022e-05,8.204e-05,7.472e-05,7.732e-05,7.08e-05,5.094e-05
772,2.59e-05,0,1.9414e-05,4.352e-05,4.184e-05,3.03e-05,6.87e-05,3.78e-05,7.406e-05,4.952e-05,4.52e-05,5.582e-05,5.98e-05,6.964e-05,3.972e-05,5.962e-05,5.106e-05,7.034e-05,6.342e-05,5.848e-05,1.7082e-05,1.6518e-05,2.016e-05,1.0212e-05,1.555e-05,2.712e-05,3.254e-05,2.232e-05,3.238e-05,1.8034e-05,8.634e-05,7.77e-05,4.866e-05,5.388e-05,7.178e-05,6.646e-05,9.594e-05,7.79e-05,6.868e-05,5.686e-05
774,1.2114e-05,0,3.614e-05,4.006e-05,6.116e-05,5.106e-05,6.192e-05,3.876e-05,7.09e-05,4.962e-05,5.614e-05,5.966e-05,5.652e-05,6.3e-05,3.888e-05,5.044e-05,5.75e-05,5.198e-05,5.13e-05,4.16e-05,1.6604e-05,2.048e-05,2.688e-05,9.166e-06,1.4066e-05,3.32e-05,3.724e-05,2.796e-05,3.39e-05,2.152e-05,8.914e-05,7.416e-05,6.19e-05,4.964e-05,6.732e-05,6.642e-05,9.52e-05,8.28e-05,8.432e-05,6.828e-05
776,1.8544e-05,3.232e-06,3.874e-05,5.51e-05,6.84e-05,3.778e-05,5.316e-05,5.36e-05,5.99e-05,5.674e-05,3.486e-05,4.728e-05,5.864e-05,5.666e-05,3.57e-05,6.442e-05,5.76e-05,6.444e-05,6.158e-05,4.076e-05,1.789e-05,1.7532e-05,2.298e-05,7.31e-06,1.9924e-05,2.734e-05,3.684e-05,2.608e-05,3.226e-05,2.818e-05,0.0001067,8.312e-05,8.628e-05,6.19e-05,6.616e-05,0.00010404,9.194e-05,0.00010616,7.018e-05,9.308e-05
778,1.2884e-05,1.689e-05,3.954e-05,6.404e-05,7.372e-05,4.044e-05,5.596e-05,3.214e-05,5.512e-05,4.86e-05,6.016e-05,5.54e-05,4.738e-05,4.772e-05,3.846e-05,5.366e-05,5.198e-05,4.246e-05,6.804e-05,4.644e-05,1.0126e-05,2.14e-05,1.719e-05,6.542e-06,2.926e-05,3.396e-05,3.558e-05,2.89e-05,3.814e-05,2.676e-05,0.00012636,6.108e-05,7.16e-05,8.92e-05,6.37e-05,0.00010298,0.00010442,7.446e-05,6.188e-05,8.196e-05
780,4.428e-06,0,6.008e-05,7.488e-05,7.53e-05,6.818e-05,7.676e-05,5.956e-05,4.836e-05,5.266e-05,7.032e-05,5.106e-05,4.904e-05,5.386e-05,3.168e-05,3.706e-05,4.36e-05,5.082e-05,7.514e-05,2.662e-05,9.224e-06,2.12e-05,2.244e-05,5.322e-06,2.702e-05,3.81e-05,4.458e-05,3.23e-05,3.718e-05,2.888e-05,0.00011782,0.00011492,6.918e-05,9.526e-05,5.546e-05,0.0001272,9.072e-05,0.00010362,7.466e-05,8.006e-05
