Wavelength [nm],Background (Mel),Modulation (Mel),Background (LMS),Modulation (LMS)380,1.3314e-05,8.588e-06,1.1044e-05,7.08e-06,9.378e-06,1.0374e-05,1.2338e-05,7.42e-06,5.766e-06,1.2768e-05,7.662e-06,9.63e-06,1.0584e-05,6.43e-06,2.708e-06,7.564e-06,1.2646e-05,5.622e-06,1.4676e-05,6.778e-06,3.412e-07,1.518e-06,2.958e-06,1.5926e-06,4.092e-06,4.048e-06,5.546e-06,5.176e-06,6.094e-06,5.052e-06,2.05e-05,1.503e-05,2.97e-05,2.45e-05,1.789e-05,2.316e-05,1.8708e-05,1.6958e-05,6.734e-06,1.3462e-05
382,1.4236e-05,3.32e-06,1.4842e-05,6.752e-06,7.482e-06,1.199e-05,1.1056e-05,4.586e-06,5.146e-06,1.1152e-05,5.878e-06,8.38e-06,1.0664e-05,4.646e-06,6.686e-06,1.0066e-05,1.292e-05,7.708e-06,1.351e-05,8.398e-06,1.1762e-06,2.24e-06,4.002e-06,3.068e-06,3.032e-06,4.176e-06,5.594e-06,5.424e-06,6.008e-06,3.188e-06,1.6708e-05,1.0532e-05,2.61e-05,2.274e-05,1.5442e-05,2.296e-05,2.022e-05,1.6144e-05,5.062e-06,2.008e-05
384,1.649e-05,6.06e-06,1.2272e-05,6.794e-06,6.896e-06,9.644e-06,1.133e-05,3.126e-06,4.138e-06,1.3424e-05,7.224e-06,8.962e-06,1.23e-05,3.232e-06,5.61e-06,9.658e-06,1.1504e-05,8.184e-06,1.3406e-05,6.206e-06,1.7682e-06,1.731e-06,2.05e-06,3.676e-06,3.548e-06,5.272e-06,6.622e-06,4.316e-06,5.956e-06,3.956e-06,1.6436e-05,1.094e-05,2.566e-05,2.1e-05,1.44e-05,2.2e-05,1.8346e-05,1.4528e-05,6.904e-06,1.7894e-05
386,1.367e-05,7.768e-06,1.1396e-05,7.186e-06,6.078e-06,9.51e-06,1.4006e-05,5.414e-06,8.208e-06,1.3552e-05,8.268e-06,1.0138e-05,9.882e-06,7.776e-06,6.17e-06,1.0104e-05,1.189e-05,6.63e-06,1.5784e-05,5.568e-06,9.154e-07,2.658e-06,1.8106e-06,3.292e-06,3.776e-06,5.194e-06,6.3e-06,3.406e-06,6.07e-06,3.954e-06,1.3116e-05,1.3892e-05,2.242e-05,1.9132e-05,1.6084e-05,2.452e-05,1.6736e-05,1.359e-05,9.162e-06,1.6694e-05
388,1.179e-05,8.304e-06,1.2008e-05,5.64e-06,7.494e-06,8.74e-06,1.244e-05,6.342e-06,7.41e-06,1.376e-05,5.196e-06,9.136e-06,8.314e-06,7.498e-06,5.182e-06,9.55e-06,1.058e-05,5.602e-06,1.5558e-05,6.854e-06,0,2.596e-06,2.928e-06,3.4e-06,3.1e-06,5.854e-06,5.966e-06,4.102e-06,4.768e-06,3.752e-06,1.4152e-05,9.138e-06,2.096e-05,2.084e-05,1.6898e-05,2.362e-05,1.759e-05,1.2992e-05,8.64e-06,1.6056e-05
390,1.523e-05,6.302e-06,1.3344e-05,5.492e-06,5.676e-06,9.624e-06,1.1346e-05,4.75e-06,4.138e-06,1.2796e-05,6.502e-06,1.0484e-05,8.106e-06,8.04e-06,4.794e-06,9.076e-06,1.1374e-05,5.892e-06,1.4944e-05,8.92e-06,7.768e-07,3.234e-06,2.554e-06,3.438e-06,3.056e-06,5.724e-06,6.09e-06,3.89e-06,4.75e-06,2.782e-06,1.445e-05,7.87e-06,2.01e-05,1.9428e-05,1.9038e-05,2.132e-05,1.9348e-05,1.128e-05,1.1412e-05,1.75e-05
392,1.1256e-05,7.352e-06,1.0582e-05,6.632e-06,5.496e-06,1.1158e-05,1.1018e-05,7.424e-06,7.056e-06,1.2764e-05,7.494e-06,1.057e-05,7.788e-06,5.684e-06,4.44e-06,1.1156e-05,1.2894e-05,7.504e-06,1.385e-05,8.376e-06,6.828e-07,3.688e-06,9.466e-07,3.888e-06,2.606e-06,4.756e-06,5.308e-06,5.122e-06,4.666e-06,2.742e-06,1.4034e-05,1.0758e-05,2.102e-05,1.5548e-05,1.6458e-05,2.252e-05,1.5882e-05,1.2862e-05,9.814e-06,1.4486e-05
394,9.856e-06,4.26e-06,9.07e-06,5.358e-06,1.3366e-06,1.0062e-05,1.0888e-05,4.782e-06,4.698e-06,1.2044e-05,4.724e-06,8.156e-06,8.998e-06,6.296e-06,6.596e-06,1.0672e-05,1.215e-05,7.11e-06,1.3186e-05,7.846e-06,7.6e-08,3.766e-06,1.596e-06,4.09e-06,1.2712e-06,4.9e-06,4.87e-06,5.088e-06,4.898e-06,3.194e-06,1.2292e-05,1.0326e-05,1.665e-05,1.499e-05,1.886e-05,1.4728e-05,1.5314e-05,1.2552e-05,7.152e-06,1.6348e-05
396,1.232e-05,2.484e-06,8.64e-06,4.818e-06,2.032e-06,8.356e-06,1.3866e-05,5.794e-06,8.152e-06,8.434e-06,6.368e-06,1.1058e-05,8.134e-06,7.588e-06,6.09e-06,1.0906e-05,1.1624e-05,6.798e-06,1.3512e-05,9.318e-06,7.914e-07,2.716e-06,1.8594e-06,3.84e-06,2.172e-06,4.436e-06,4.908e-06,4.448e-06,5.232e-06,3.606e-06,1.304e-05,7.024e-06,1.7046e-05,1.3498e-05,1.6162e-05,1.6142e-05,1.4498e-05,9.94e-06,1.138e-05,1.7494e-05
398,8.728e-06,3.226e-06,7.242e-06,3.998e-06,4.596e-06,9e-06,8.488e-06,6.746e-06,5.258e-06,8.936e-06,7.62e-06,9.978e-06,9.732e-06,8.99e-06,6.668e-06,1.0886e-05,1.0326e-05,6.638e-06,1.2804e-05,8.794e-06,1.4164e-07,2.744e-06,9.464e-07,3.774e-06,2.154e-06,4.536e-06,5.086e-06,4.436e-06,4.338e-06,3.448e-06,7.864e-06,8.68e-06,1.5348e-05,1.2432e-05,1.5656e-05,1.6884e-05,1.3432e-05,1.0738e-05,1.3254e-05,1.7782e-05
400,6.83e-06,7.21e-06,7.83e-06,4.842e-06,2.892e-06,5.724e-06,1.0178e-05,2.098e-06,7.37e-06,7.124e-06,6.434e-06,8.934e-06,8.138e-06,9.312e-06,8.73e-06,1.0176e-05,9.968e-06,4.834e-06,1.1266e-05,8.352e-06,1.363e-07,3.218e-06,8.798e-07,3.718e-06,9.408e-07,5.066e-06,4.12e-06,3.642e-06,4.682e-06,3.246e-06,7.372e-06,9.75e-06,1.2594e-05,9.296e-06,1.528e-05,1.759e-05,1.1412e-05,7.28e-06,9.512e-06,1.7886e-05
402,8.938e-06,7.11e-06,5.878e-06,5.218e-06,1.387e-06,4.882e-06,1.1824e-05,3.852e-06,6.248e-06,6.856e-06,4.436e-06,8.806e-06,8.674e-06,7.756e-06,8.668e-06,9.07e-06,1.1076e-05,5.306e-06,1.1752e-05,7.748e-06,7.864e-08,3.624e-06,1.3166e-06,3.906e-06,1.7164e-06,5.09e-06,4.516e-06,3.334e-06,4.71e-06,3.724e-06,6.768e-06,9.962e-06,1.39e-05,9.912e-06,1.7952e-05,1.26e-05,1.1178e-05,1.0992e-05,1.0014e-05,1.6984e-05
404,8.84e-06,6.032e-06,4.17e-06,5.642e-06,3.342e-06,3.756e-06,9.918e-06,5.204e-06,7.442e-06,6.824e-06,5.362e-06,8.606e-06,6.476e-06,7.48e-06,7.914e-06,8.916e-06,8.712e-06,8.948e-06,1.1472e-05,7.108e-06,0,3.17e-06,1.9242e-06,3.684e-06,2.026e-06,5.088e-06,4.524e-06,3.664e-06,4.296e-06,3.502e-06,8.914e-06,1.1324e-05,1.1276e-05,9.372e-06,1.4462e-05,1.1176e-05,1.0432e-05,1.0598e-05,1.1974e-05,1.9404e-05
406,8.556e-06,3.564e-06,4.27e-06,3.064e-06,2.966e-06,2.518e-06,8.802e-06,3.604e-06,8.058e-06,7.522e-06,4.832e-06,8.55e-06,6.726e-06,7.604e-06,7.854e-06,9.334e-06,7.29e-06,9.392e-06,1.01e-05,7.412e-06,5.382e-07,3.404e-06,2.678e-06,4.098e-06,1.2078e-06,4.782e-06,4.538e-06,3.652e-06,4.646e-06,3.01e-06,7.288e-06,1.1456e-05,8.968e-06,8.174e-06,1.4776e-05,1.3222e-05,9.468e-06,7.882e-06,1.4718e-05,1.959e-05
408,6.74e-06,4.128e-06,4.218e-06,2.216e-06,2.69e-06,3.694e-06,8.55e-06,4.45e-06,7.406e-06,7.602e-06,4.174e-06,9.834e-06,7.754e-06,8.596e-06,8.048e-06,9.686e-06,8.406e-06,7.748e-06,1.02e-05,8.738e-06,1.5096e-06,3.552e-06,1.7272e-06,3.348e-06,1.6364e-06,4.834e-06,3.384e-06,4.026e-06,3.936e-06,3.41e-06,7.14e-06,1.2378e-05,1.1278e-05,9.778e-06,1.3002e-05,1.3144e-05,1.0122e-05,6.814e-06,1.0648e-05,1.8442e-05
410,4.048e-06,5.386e-06,2.46e-06,3.18e-06,2.898e-06,5.32e-06,9.02e-06,7.304e-06,6.922e-06,8.24e-06,7.954e-06,1.0512e-05,7.236e-06,9.108e-06,7.23e-06,8.452e-06,7.834e-06,9.364e-06,8.772e-06,7.12e-06,4.224e-07,3.176e-06,1.1516e-06,3.688e-06,1.0224e-06,5.124e-06,3.694e-06,4.238e-06,4.252e-06,2.95e-06,6.97e-06,1.493e-05,1.3258e-05,5.736e-06,1.326e-05,1.3172e-05,9.34e-06,9.59e-06,1.2268e-05,1.9084e-05
412,7.648e-06,2.856e-06,5.772e-06,3.896e-06,2.872e-06,4.082e-06,9.392e-06,5.448e-06,8.012e-06,7.646e-06,5.152e-06,8.264e-06,6.118e-06,9.094e-06,6.91e-06,9.738e-06,7.264e-06,8.372e-06,9.31e-06,6.738e-06,1.5458e-06,4.096e-06,1.2336e-06,3.302e-06,1.1276e-06,4.636e-06,2.946e-06,3.988e-06,4.588e-06,2.744e-06,1.1444e-05,1.5066e-05,1.186e-05,1.229e-05,1.5388e-05,1.419e-05,1.2596e-05,1.217e-05,1.893e-05,2.268e-05
414,1.2004e-05,8.374e-06,8.706e-06,5.992e-06,8.458e-06,7.252e-06,1.306e-05,8.454e-06,1.2406e-05,9.222e-06,6.84e-06,9e-06,6.884e-06,1.0074e-05,1.0112e-05,9.274e-06,8.802e-06,8.06e-06,9.622e-06,8.536e-06,1.582e-06,3.704e-06,1.7772e-06,2.496e-06,1.548e-06,4.68e-06,3.506e-06,4.296e-06,4.252e-06,3.792e-06,1.3948e-05,2.068e-05,1.626e-05,1.5094e-05,1.699e-05,2.086e-05,1.481e-05,1.7588e-05,1.951e-05,2.056e-05
416,2.336e-05,2.346e-05,1.8894e-05,1.9328e-05,2.16e-05,1.7984e-05,2.064e-05,1.8818e-05,2.166e-05,2.096e-05,9.628e-06,1.2126e-05,9.552e-06,1.2998e-05,1.1954e-05,1.0874e-05,1.0368e-05,1.1942e-05,1.128e-05,1.1236e-05,2.786e-06,3.894e-06,2.31e-06,3.628e-06,1.6302e-06,5.152e-06,4.034e-06,4.99e-06,4.38e-06,4.268e-06,3.032e-05,3.69e-05,3.244e-05,3.12e-05,3.542e-05,3.26e-05,3.028e-05,3.274e-05,3.564e-05,3.682e-05
418,5.192e-05,5.128e-05,4.936e-05,4.906e-05,5.066e-05,4.532e-05,4.66e-05,4.518e-05,4.866e-05,4.594e-05,1.6918e-05,1.8102e-05,1.8024e-05,1.8532e-05,1.922e-05,1.6942e-05,1.6188e-05,1.9202e-05,1.8498e-05,1.7358e-05,3.996e-06,5.044e-06,4.026e-06,4.7e-06,3.336e-06,6.438e-06,4.7e-06,5.638e-06,5.544e-06,5.028e-06,6.768e-05,7.49e-05,6.998e-05,6.904e-05,7.304e-05,6.83e-05,6.688e-05,6.82e-05,6.966e-05,7.164e-05
420,0.00010076,0.00010012,9.826e-05,9.778e-05,9.974e-05,9.184e-05,9.17e-05,9.294e-05,9.376e-05,9.194e-05,2.806e-05,3.038e-05,3.02e-05,3.124e-05,3.142e-05,2.848e-05,2.814e-05,3.074e-05,2.946e-05,2.932e-05,5.458e-06,6.866e-06,5.738e-06,6.24e-06,4.976e-06,7.808e-06,6.526e-06,6.834e-06,7.328e-06,6.976e-06,0.0001343,0.00014124,0.00013656,0.00013504,0.000138,0.00012902,0.00012788,0.00012666,0.00012976,0.0001321
422,0.00016022,0.00016176,0.00015752,0.00015928,0.00015932,0.00014924,0.00015002,0.0001522,0.00015144,0.00014918,4.382e-05,4.414e-05,4.492e-05,4.724e-05,4.654e-05,4.334e-05,4.062e-05,4.372e-05,4.366e-05,4.456e-05,8.224e-06,9.742e-06,8.01e-06,8.67e-06,7.606e-06,9.93e-06,9.044e-06,9.634e-06,9.802e-06,9.232e-06,0.0002268,0.0002328,0.0002294,0.0002262,0.0002282,0.0002144,0.0002114,0.000213,0.0002182,0.0002204
424,0.000222,0.0002212,0.000219,0.00022,0.0002222,0.0002072,0.0002108,0.0002108,0.0002116,0.0002062,5.924e-05,5.928e-05,5.968e-05,6.278e-05,6.126e-05,5.694e-05,5.568e-05,5.828e-05,5.696e-05,5.904e-05,1.1608e-05,1.286e-05,1.171e-05,1.24e-05,1.1282e-05,1.3316e-05,1.2072e-05,1.3188e-05,1.2368e-05,1.2846e-05,0.0003442,0.0003492,0.0003446,0.0003418,0.0003466,0.0003264,0.0003234,0.000324,0.0003294,0.0003308
426,0.0002778,0.0002782,0.0002756,0.0002768,0.0002792,0.0002652,0.0002652,0.0002646,0.000265,0.000264,7.292e-05,7.472e-05,7.464e-05,7.546e-05,7.556e-05,7.064e-05,7.016e-05,7.432e-05,7.19e-05,7.312e-05,1.6402e-05,1.6688e-05,1.6228e-05,1.661e-05,1.5766e-05,1.7268e-05,1.6292e-05,1.7334e-05,1.6096e-05,1.6418e-05,0.0004922,0.0004996,0.0004918,0.0004956,0.0004952,0.0004708,0.0004672,0.000468,0.0004718,0.0004722
428,0.0003268,0.0003278,0.0003266,0.0003268,0.000327,0.0003132,0.0003148,0.0003152,0.0003132,0.0003128,8.674e-05,8.828e-05,8.636e-05,9.056e-05,8.938e-05,8.432e-05,8.41e-05,8.756e-05,8.51e-05,8.736e-05,2.126e-05,2.202e-05,2.07e-05,2.128e-05,2.106e-05,2.236e-05,2.09e-05,2.21e-05,2.11e-05,2.148e-05,0.0006636,0.0006702,0.0006666,0.0006634,0.0006646,0.000636,0.0006316,0.0006342,0.000638,0.0006364
430,0.0003686,0.0003678,0.0003674,0.0003674,0.0003692,0.0003516,0.0003532,0.0003536,0.0003528,0.0003504,9.764e-05,9.748e-05,9.862e-05,0.0001003,0.00010014,9.42e-05,9.42e-05,9.778e-05,9.608e-05,9.674e-05,2.628e-05,2.642e-05,2.554e-05,2.582e-05,2.5e-05,2.71e-05,2.57e-05,2.656e-05,2.558e-05,2.57e-05,0.0008144,0.0008202,0.0008166,0.0008156,0.0008166,0.0007818,0.000778,0.0007794,0.0007844,0.000783
432,0.0003898,0.0003898,0.0003876,0.000389,0.000391,0.0003728,0.000373,0.0003736,0.0003748,0.0003716,0.0001032,0.00010406,0.00010538,0.00010624,0.00010496,9.976e-05,9.916e-05,0.0001023,0.00010088,0.0001021,3.016e-05,3.024e-05,2.924e-05,3.002e-05,2.918e-05,3.048e-05,2.97e-05,2.998e-05,2.892e-05,2.922e-05,0.0009182,0.0009244,0.0009184,0.0009212,0.0009192,0.0008816,0.0008786,0.0008812,0.0008842,0.0008856
434,0.0003728,0.0003748,0.0003728,0.000375,0.000375,0.0003612,0.00036,0.0003628,0.0003618,0.0003586,0.00010154,0.000102,0.00010292,0.00010386,0.00010342,9.812e-05,9.702e-05,0.00010068,9.856e-05,9.984e-05,3.266e-05,3.294e-05,3.222e-05,3.22e-05,3.202e-05,3.272e-05,3.17e-05,3.296e-05,3.136e-05,3.156e-05,0.0009568,0.0009632,0.000955,0.0009588,0.0009568,0.0009194,0.0009178,0.0009192,0.0009224,0.0009226
436,0.0003096,0.000312,0.0003106,0.0003136,0.000313,0.0003044,0.000305,0.000306,0.0003034,0.0003016,8.83e-05,8.902e-05,8.864e-05,8.9e-05,8.93e-05,8.46e-05,8.464e-05,8.738e-05,8.576e-05,8.768e-05,3.378e-05,3.376e-05,3.312e-05,3.256e-05,3.296e-05,3.346e-05,3.248e-05,3.38e-05,3.26e-05,3.216e-05,0.0009244,0.000928,0.000922,0.0009266,0.0009248,0.0008904,0.0008892,0.0008922,0.0008938,0.0008926
438,0.000217,0.0002192,0.0002178,0.0002192,0.0002218,0.0002186,0.0002168,0.0002182,0.0002156,0.0002146,6.698e-05,6.742e-05,6.744e-05,6.772e-05,6.75e-05,6.486e-05,6.426e-05,6.836e-05,6.584e-05,6.686e-05,3.308e-05,3.296e-05,3.24e-05,3.2e-05,3.288e-05,3.282e-05,3.228e-05,3.344e-05,3.196e-05,3.2e-05,0.0008362,0.0008394,0.0008324,0.0008372,0.000838,0.0008106,0.0008092,0.0008114,0.0008136,0.0008126
440,0.00012516,0.00012782,0.00012506,0.00012608,0.0001281,0.00012904,0.00012626,0.00012836,0.00012638,0.00012526,4.662e-05,4.654e-05,4.718e-05,4.638e-05,4.732e-05,4.552e-05,4.41e-05,4.804e-05,4.67e-05,4.798e-05,3.17e-05,3.166e-05,3.142e-05,3.084e-05,3.068e-05,3.24e-05,3.164e-05,3.262e-05,3.154e-05,3.12e-05,0.0007054,0.0007074,0.000701,0.000704,0.0007038,0.0006882,0.0006864,0.0006888,0.0006894,0.0006872
442,6.82e-05,6.71e-05,6.884e-05,6.762e-05,7.166e-05,6.834e-05,6.88e-05,7.088e-05,6.652e-05,6.732e-05,3.562e-05,3.612e-05,3.572e-05,3.53e-05,3.628e-05,3.468e-05,3.374e-05,3.612e-05,3.576e-05,3.566e-05,3.042e-05,2.996e-05,2.952e-05,2.904e-05,2.944e-05,3.074e-05,3e-05,3.094e-05,3.028e-05,2.978e-05,0.0005306,0.000531,0.0005274,0.0005308,0.0005292,0.0005226,0.0005212,0.0005228,0.0005256,0.0005228
444,5.048e-05,5.304e-05,5.152e-05,5.206e-05,5.398e-05,5.23e-05,5.154e-05,5.24e-05,4.9e-05,4.834e-05,3.306e-05,3.404e-05,3.246e-05,3.222e-05,3.326e-05,3.168e-05,3.164e-05,3.366e-05,3.26e-05,3.348e-05,2.908e-05,2.81e-05,2.81e-05,2.766e-05,2.822e-05,2.932e-05,2.852e-05,2.966e-05,2.824e-05,2.846e-05,0.0003648,0.0003658,0.0003604,0.0003662,0.0003626,0.0003614,0.0003598,0.0003614,0.0003632,0.0003616
446,4.71e-05,5.086e-05,4.962e-05,5.186e-05,5.11e-05,5.038e-05,4.862e-05,4.966e-05,4.656e-05,4.76e-05,3.456e-05,3.5e-05,3.386e-05,3.398e-05,3.388e-05,3.28e-05,3.218e-05,3.52e-05,3.274e-05,3.382e-05,2.79e-05,2.75e-05,2.784e-05,2.73e-05,2.79e-05,2.836e-05,2.776e-05,2.866e-05,2.772e-05,2.75e-05,0.0002234,0.0002228,0.0002182,0.0002242,0.0002194,0.0002204,0.0002194,0.0002216,0.0002222,0.000221
448,5.006e-05,5.312e-05,5.29e-05,5.436e-05,5.418e-05,5.236e-05,5.206e-05,5.286e-05,4.912e-05,5.042e-05,3.692e-05,3.79e-05,3.682e-05,3.684e-05,3.674e-05,3.572e-05,3.414e-05,3.724e-05,3.536e-05,3.658e-05,2.956e-05,2.882e-05,2.888e-05,2.864e-05,2.908e-05,2.952e-05,2.894e-05,2.946e-05,2.906e-05,2.858e-05,0.0001403,0.00013694,0.00013344,0.00013954,0.00013568,0.00013392,0.00013514,0.00013418,0.00013676,0.0001352
450,5.42e-05,5.73e-05,5.85e-05,5.862e-05,5.83e-05,5.774e-05,5.526e-05,5.612e-05,5.294e-05,5.42e-05,4.072e-05,4.052e-05,3.976e-05,3.998e-05,3.948e-05,3.8e-05,3.732e-05,3.962e-05,3.916e-05,3.882e-05,3.214e-05,3.154e-05,3.156e-05,3.118e-05,3.196e-05,3.182e-05,3.16e-05,3.22e-05,3.09e-05,3.132e-05,0.00011002,0.00010782,0.00010452,0.00011064,0.00010668,0.00010316,0.00010268,0.0001033,0.00010644,0.00010312
452,5.606e-05,5.866e-05,6.102e-05,6.12e-05,5.974e-05,5.906e-05,5.718e-05,5.85e-05,5.664e-05,5.622e-05,4.286e-05,4.234e-05,4.114e-05,4.244e-05,4.04e-05,3.952e-05,3.828e-05,4.132e-05,4.204e-05,4.126e-05,3.41e-05,3.394e-05,3.406e-05,3.354e-05,3.372e-05,3.392e-05,3.414e-05,3.436e-05,3.328e-05,3.352e-05,0.0001023,0.00010108,9.954e-05,0.00010268,0.0001013,9.516e-05,9.552e-05,9.76e-05,9.942e-05,9.442e-05
454,5.716e-05,5.858e-05,5.932e-05,6.184e-05,6.138e-05,5.748e-05,5.644e-05,5.822e-05,5.546e-05,5.73e-05,4.372e-05,4.306e-05,4.224e-05,4.216e-05,4.15e-05,4.046e-05,3.934e-05,4.19e-05,4.176e-05,4.2e-05,3.55e-05,3.484e-05,3.48e-05,3.464e-05,3.484e-05,3.476e-05,3.474e-05,3.536e-05,3.4e-05,3.436e-05,0.00010186,9.654e-05,9.606e-05,9.962e-05,9.76e-05,9.142e-05,9.312e-05,9.372e-05,9.62e-05,9.2e-05
456,5.708e-05,5.782e-05,6.006e-05,6.216e-05,6.058e-05,6.03e-05,5.74e-05,5.978e-05,5.516e-05,5.63e-05,4.398e-05,4.378e-05,4.184e-05,4.186e-05,4.13e-05,4.112e-05,4.048e-05,4.228e-05,4.408e-05,4.094e-05,3.702e-05,3.572e-05,3.658e-05,3.592e-05,3.684e-05,3.564e-05,3.59e-05,3.628e-05,3.568e-05,3.536e-05,9.88e-05,9.668e-05,9.43e-05,9.864e-05,9.648e-05,9.186e-05,9.222e-05,9.176e-05,9.452e-05,9.222e-05
458,5.822e-05,5.936e-05,6.25e-05,6.182e-05,6.23e-05,6.208e-05,5.896e-05,6.112e-05,5.712e-05,5.98e-05,4.564e-05,4.628e-05,4.444e-05,4.388e-05,4.292e-05,4.346e-05,4.272e-05,4.462e-05,4.542e-05,4.298e-05,3.932e-05,3.828e-05,3.896e-05,3.888e-05,3.918e-05,3.804e-05,3.81e-05,3.886e-05,3.842e-05,3.788e-05,0.00010128,9.744e-05,9.644e-05,0.0001006,9.974e-05,9.196e-05,9.356e-05,9.286e-05,9.692e-05,9.144e-05
460,6.146e-05,6.272e-05,6.428e-05,6.424e-05,6.466e-05,6.324e-05,6.368e-05,6.18e-05,6.046e-05,6.248e-05,4.75e-05,4.756e-05,4.682e-05,4.576e-05,4.618e-05,4.404e-05,4.406e-05,4.618e-05,4.728e-05,4.538e-05,4.15e-05,4.034e-05,4.14e-05,4.11e-05,4.166e-05,4.026e-05,4.066e-05,4.122e-05,4.088e-05,4.044e-05,0.00010082,9.872e-05,9.842e-05,9.946e-05,0.0001,9.35e-05,9.408e-05,9.44e-05,9.744e-05,9.288e-05
462,6.516e-05,6.642e-05,6.676e-05,6.742e-05,6.768e-05,6.582e-05,6.612e-05,6.504e-05,6.248e-05,6.45e-05,4.918e-05,5.054e-05,4.904e-05,4.788e-05,4.808e-05,4.688e-05,4.604e-05,4.784e-05,4.94e-05,4.642e-05,4.434e-05,4.342e-05,4.422e-05,4.394e-05,4.468e-05,4.27e-05,4.326e-05,4.41e-05,4.304e-05,4.31e-05,0.00010234,9.986e-05,0.00010026,0.0001013,0.00010204,9.514e-05,9.502e-05,9.62e-05,9.822e-05,9.456e-05
464,6.756e-05,6.89e-05,6.988e-05,7.18e-05,7.134e-05,6.778e-05,6.84e-05,6.784e-05,6.492e-05,6.668e-05,5.198e-05,5.214e-05,5.17e-05,4.938e-05,5.036e-05,4.866e-05,4.784e-05,5.026e-05,5.132e-05,4.826e-05,4.754e-05,4.62e-05,4.748e-05,4.76e-05,4.76e-05,4.596e-05,4.606e-05,4.66e-05,4.602e-05,4.592e-05,0.00010398,0.00010156,0.000102,0.00010432,0.0001044,9.556e-05,9.81e-05,9.68e-05,0.00010124,9.63e-05
466,7.228e-05,7.452e-05,7.6e-05,7.598e-05,7.448e-05,7.208e-05,7.146e-05,7.152e-05,6.938e-05,7.234e-05,5.412e-05,5.502e-05,5.378e-05,5.23e-05,5.174e-05,5.07e-05,5.154e-05,5.184e-05,5.42e-05,5.144e-05,5.11e-05,5.034e-05,5.182e-05,5.138e-05,5.186e-05,4.986e-05,5.006e-05,4.988e-05,5e-05,4.974e-05,0.0001096,0.0001063,0.00010718,0.00010834,0.00011044,0.00010128,0.00010096,9.948e-05,0.00010432,0.00010046
468,7.982e-05,7.842e-05,8.02e-05,8.042e-05,8.038e-05,7.778e-05,7.494e-05,7.726e-05,7.454e-05,7.754e-05,5.66e-05,5.792e-05,5.666e-05,5.514e-05,5.45e-05,5.398e-05,5.398e-05,5.42e-05,5.748e-05,5.298e-05,5.594e-05,5.524e-05,5.678e-05,5.63e-05,5.722e-05,5.44e-05,5.428e-05,5.546e-05,5.472e-05,5.466e-05,0.00011576,0.00011348,0.00011404,0.00011496,0.00011682,0.00010584,0.00010862,0.00010752,0.00010994,0.00010292
470,7.976e-05,7.996e-05,8.22e-05,8.236e-05,7.97e-05,7.868e-05,7.796e-05,7.814e-05,7.748e-05,8.018e-05,5.442e-05,5.524e-05,5.448e-05,5.52e-05,5.426e-05,5.398e-05,5.364e-05,5.278e-05,5.49e-05,5.21e-05,5.764e-05,5.738e-05,5.87e-05,5.8e-05,5.914e-05,5.634e-05,5.622e-05,5.648e-05,5.62e-05,5.638e-05,0.00011208,0.00011168,0.00011192,0.00011262,0.00011668,0.00010622,0.00010982,0.0001074,0.00010932,0.00010298
472,7.988e-05,7.914e-05,7.994e-05,7.962e-05,8.02e-05,7.894e-05,7.704e-05,7.61e-05,7.666e-05,7.832e-05,5.354e-05,5.416e-05,5.254e-05,5.298e-05,5.238e-05,5.094e-05,5.018e-05,5.066e-05,5.326e-05,4.97e-05,5.836e-05,5.744e-05,5.878e-05,5.838e-05,5.904e-05,5.68e-05,5.674e-05,5.632e-05,5.646e-05,5.634e-05,0.00010972,0.0001083,0.00010938,0.00011162,0.00011308,0.00010418,0.00010602,0.0001034,0.0001057,0.00010162
474,7.882e-05,7.754e-05,7.824e-05,7.826e-05,7.856e-05,7.866e-05,7.49e-05,7.438e-05,7.58e-05,7.552e-05,5.098e-05,5.252e-05,5.036e-05,5.086e-05,4.9e-05,4.832e-05,4.986e-05,4.95e-05,5.178e-05,4.788e-05,5.832e-05,5.728e-05,5.858e-05,5.852e-05,5.87e-05,5.664e-05,5.652e-05,5.588e-05,5.658e-05,5.642e-05,0.00010836,0.0001067,0.00010682,0.00010788,0.00011002,0.0001009,0.0001034,0.00010118,0.00010358,9.812e-05
476,7.646e-05,7.402e-05,7.48e-05,7.498e-05,7.332e-05,7.302e-05,7.278e-05,7.076e-05,7.202e-05,7.228e-05,4.684e-05,4.834e-05,4.648e-05,4.708e-05,4.628e-05,4.528e-05,4.716e-05,4.51e-05,4.852e-05,4.386e-05,5.648e-05,5.55e-05,5.696e-05,5.694e-05,5.632e-05,5.544e-05,5.518e-05,5.46e-05,5.476e-05,5.49e-05,0.00010164,0.00010076,0.00010008,0.00010136,0.0001037,9.526e-05,9.76e-05,9.7e-05,9.838e-05,9.148e-05
478,7.538e-05,7.258e-05,7.316e-05,7.26e-05,7.212e-05,7.166e-05,7.01e-05,6.96e-05,7.122e-05,7.148e-05,4.466e-05,4.586e-05,4.552e-05,4.568e-05,4.476e-05,4.348e-05,4.462e-05,4.35e-05,4.662e-05,4.288e-05,5.556e-05,5.522e-05,5.592e-05,5.648e-05,5.614e-05,5.544e-05,5.46e-05,5.438e-05,5.466e-05,5.454e-05,9.642e-05,9.646e-05,9.786e-05,9.858e-05,9.848e-05,9.38e-05,9.474e-05,9.232e-05,9.36e-05,8.704e-05
480,7.748e-05,7.496e-05,7.51e-05,7.406e-05,7.34e-05,7.454e-05,7.256e-05,7.108e-05,7.546e-05,7.43e-05,4.64e-05,4.688e-05,4.606e-05,4.654e-05,4.56e-05,4.492e-05,4.678e-05,4.428e-05,4.694e-05,4.318e-05,5.842e-05,5.82e-05,5.892e-05,5.938e-05,5.906e-05,5.822e-05,5.812e-05,5.76e-05,5.792e-05,5.76e-05,9.95e-05,9.814e-05,0.0001011,9.882e-05,0.00010078,9.466e-05,9.854e-05,9.468e-05,9.554e-05,9.01e-05
482,8.004e-05,7.836e-05,7.96e-05,7.828e-05,7.854e-05,7.774e-05,7.648e-05,7.642e-05,7.734e-05,7.764e-05,4.94e-05,4.946e-05,4.842e-05,4.934e-05,4.984e-05,4.816e-05,4.718e-05,4.764e-05,4.938e-05,4.66e-05,6.332e-05,6.34e-05,6.464e-05,6.454e-05,6.436e-05,6.28e-05,6.26e-05,6.226e-05,6.31e-05,6.27e-05,0.00010396,0.00010288,0.00010438,0.00010392,0.00010558,9.9e-05,0.00010106,9.86e-05,9.982e-05,9.446e-05
484,8.124e-05,7.888e-05,7.958e-05,7.92e-05,7.92e-05,7.872e-05,7.678e-05,7.634e-05,7.786e-05,7.732e-05,5.256e-05,5.35e-05,5.232e-05,5.312e-05,5.314e-05,5.024e-05,5.16e-05,5.052e-05,5.208e-05,4.86e-05,6.616e-05,6.634e-05,6.682e-05,6.73e-05,6.7e-05,6.522e-05,6.582e-05,6.478e-05,6.618e-05,6.518e-05,0.00010186,0.00010154,0.00010424,0.00010268,0.00010502,9.81e-05,0.00010136,9.906e-05,9.91e-05,9.526e-05
486,8.004e-05,7.74e-05,8.004e-05,7.688e-05,7.714e-05,7.806e-05,7.542e-05,7.652e-05,7.722e-05,7.514e-05,6.29e-05,6.396e-05,6.35e-05,6.36e-05,6.334e-05,5.918e-05,6.064e-05,5.986e-05,6.04e-05,5.754e-05,7.028e-05,7.03e-05,7.054e-05,7.15e-05,7.07e-05,6.932e-05,6.89e-05,6.832e-05,6.938e-05,6.894e-05,0.00010022,0.00010186,0.00010214,9.996e-05,0.00010246,9.614e-05,9.946e-05,9.77e-05,9.784e-05,9.232e-05
488,8.112e-05,7.804e-05,7.852e-05,7.7e-05,7.75e-05,7.802e-05,7.526e-05,7.526e-05,7.68e-05,7.58e-05,0.00010202,0.00010376,0.00010246,0.00010372,0.00010332,9.5e-05,9.536e-05,9.448e-05,9.544e-05,9.484e-05,8.726e-05,8.748e-05,8.754e-05,8.854e-05,8.754e-05,8.37e-05,8.414e-05,8.268e-05,8.4e-05,8.368e-05,0.00010242,0.00010516,0.00010506,0.00010164,0.00010642,9.936e-05,0.00010146,0.00010058,0.00010036,9.472e-05
490,8.598e-05,8.118e-05,8.176e-05,8.136e-05,8.17e-05,8.082e-05,7.862e-05,7.898e-05,8.074e-05,7.908e-05,0.000242,0.0002426,0.0002434,0.000244,0.0002436,0.0002216,0.0002222,0.0002212,0.0002226,0.0002222,0.00015066,0.000151,0.00015122,0.00015204,0.00015162,0.00013996,0.00014062,0.00013934,0.00014186,0.0001409,0.00011768,0.00011776,0.0001192,0.00011648,0.00011922,0.00011066,0.00011368,0.00011252,0.00011152,0.00010698
492,9.048e-05,8.766e-05,8.85e-05,8.828e-05,8.732e-05,8.818e-05,8.488e-05,8.472e-05,8.74e-05,8.392e-05,0.000579,0.0005782,0.0005802,0.0005804,0.0005798,0.0005322,0.0005316,0.0005314,0.000534,0.0005362,0.0003102,0.0003106,0.000311,0.0003114,0.0003106,0.0002858,0.000286,0.000286,0.000288,0.0002872,0.00014626,0.00014448,0.00014602,0.00014472,0.00014564,0.00013742,0.00014026,0.00014006,0.00013676,0.00013544
494,9.484e-05,9.126e-05,9.186e-05,9.22e-05,9.098e-05,8.918e-05,8.95e-05,8.86e-05,9.126e-05,8.88e-05,0.0011542,0.0011542,0.0011552,0.0011566,0.0011538,0.0010764,0.0010774,0.0010772,0.0010806,0.0010842,0.0005844,0.0005856,0.0005852,0.0005852,0.0005848,0.000544,0.0005444,0.000544,0.0005474,0.0005464,0.00018378,0.00018664,0.00018708,0.00018378,0.00018606,0.00017552,0.0001804,0.00017912,0.00017616,0.0001743
496,9.852e-05,9.66e-05,9.732e-05,9.592e-05,9.582e-05,9.432e-05,9.192e-05,9.236e-05,9.664e-05,9.198e-05,0.0017526,0.0017536,0.0017564,0.001757,0.0017544,0.0016566,0.0016578,0.0016578,0.0016612,0.001665,0.0008524,0.0008534,0.0008534,0.0008532,0.000853,0.0008034,0.0008048,0.0008036,0.0008074,0.0008058,0.0002208,0.0002236,0.0002222,0.0002212,0.0002228,0.000213,0.0002148,0.0002146,0.0002108,0.0002116
498,0.0001118,0.00010874,0.0001108,0.00010862,0.00010916,0.00010634,0.0001032,0.00010512,0.00010744,0.00010476,0.002322,0.002324,0.002326,0.002326,0.002324,0.002212,0.002214,0.002214,0.002218,0.002222,0.0010574,0.001059,0.0010588,0.0010582,0.0010592,0.0010086,0.0010096,0.0010092,0.001012,0.0010106,0.0002474,0.00025,0.0002486,0.0002464,0.0002504,0.0002402,0.0002422,0.000243,0.0002398,0.0002414
500,0.00013662,0.00013388,0.00013454,0.00013326,0.00013304,0.00012716,0.00012642,0.0001273,0.00012996,0.0001266,0.002842,0.002846,0.002846,0.002846,0.002844,0.002722,0.002724,0.002724,0.002728,0.002732,0.0011888,0.0011906,0.0011906,0.0011896,0.0011914,0.0011428,0.0011442,0.0011426,0.0011452,0.0011442,0.000263,0.000266,0.000266,0.0002624,0.0002658,0.0002584,0.000259,0.0002592,0.0002574,0.0002572
502,0.00016504,0.00016282,0.0001624,0.00016166,0.000161,0.00015584,0.00015426,0.00015588,0.0001582,0.00015534,0.003284,0.003286,0.003286,0.003288,0.003286,0.003156,0.003156,0.003158,0.00316,0.003166,0.0012636,0.0012656,0.0012654,0.0012648,0.0012666,0.0012194,0.001221,0.0012188,0.0012222,0.0012208,0.0002716,0.0002742,0.000276,0.0002716,0.0002744,0.0002688,0.000268,0.0002698,0.0002656,0.0002684
504,0.00018592,0.00018458,0.0001832,0.00018394,0.00018262,0.000178,0.00017628,0.0001775,0.00018076,0.00017814,0.0036,0.003602,0.003604,0.003604,0.003602,0.003466,0.003466,0.00347,0.00347,0.003474,0.001301,0.001303,0.001302,0.0013016,0.0013034,0.001256,0.0012574,0.001256,0.001258,0.0012572,0.0002748,0.000279,0.0002788,0.0002772,0.0002782,0.000271,0.0002714,0.0002726,0.0002688,0.000274
506,0.00019606,0.000196,0.00019778,0.0001957,0.00019482,0.00018902,0.0001904,0.000188,0.00019108,0.00018812,0.003718,0.003722,0.00372,0.00372,0.003718,0.003582,0.003586,0.003588,0.003588,0.003592,0.0012872,0.0012892,0.0012886,0.001288,0.0012896,0.001243,0.001244,0.0012424,0.0012452,0.0012438,0.000267,0.0002734,0.0002728,0.0002714,0.0002718,0.0002654,0.0002644,0.0002658,0.0002622,0.000267
508,0.0002004,0.0002002,0.0002004,0.0002002,0.0001989,0.00019438,0.00019218,0.00019188,0.00019496,0.0001927,0.00354,0.003546,0.003544,0.003542,0.003542,0.003422,0.003426,0.003428,0.003428,0.003426,0.0011664,0.001168,0.0011674,0.0011668,0.0011686,0.001132,0.0011322,0.0011314,0.0011328,0.0011322,0.0002466,0.0002534,0.0002498,0.0002488,0.0002492,0.0002452,0.0002434,0.0002454,0.000242,0.000248
510,0.00019912,0.0002002,0.00019966,0.00019966,0.00019862,0.00019206,0.00019212,0.00019184,0.00019526,0.00019182,0.003074,0.00308,0.003078,0.003076,0.003078,0.002984,0.00299,0.002992,0.00299,0.002988,0.0009144,0.0009156,0.0009146,0.0009148,0.0009162,0.0008988,0.0008986,0.0008976,0.0008978,0.0008974,0.0002108,0.0002168,0.0002144,0.0002138,0.0002144,0.00021,0.0002104,0.0002118,0.0002064,0.0002156
512,0.00019436,0.000196,0.00019476,0.00019454,0.00019418,0.00018838,0.00018844,0.000189,0.0001907,0.00018834,0.00244,0.002446,0.002442,0.002442,0.002444,0.002382,0.002386,0.002388,0.002386,0.002384,0.0005932,0.000595,0.0005934,0.000594,0.0005952,0.0005944,0.000594,0.000593,0.0005926,0.0005926,0.00017606,0.0001811,0.00017856,0.00017764,0.00017954,0.00017666,0.0001744,0.00017604,0.00017222,0.00017948
514,0.00018264,0.0001825,0.0001829,0.0001808,0.00018206,0.00017582,0.00017688,0.00017788,0.00017832,0.0001762,0.001802,0.0018058,0.001803,0.001802,0.0018052,0.0017684,0.001771,0.0017734,0.0017696,0.0017676,0.000336,0.000338,0.0003364,0.000337,0.0003374,0.0003408,0.0003404,0.0003402,0.0003398,0.0003398,0.0001556,0.0001601,0.0001565,0.00015544,0.0001569,0.0001548,0.0001518,0.0001545,0.00015134,0.00015908
516,0.00016008,0.00016116,0.0001619,0.00015946,0.00016128,0.00015478,0.0001562,0.00015646,0.00015822,0.00015556,0.0012466,0.001249,0.0012476,0.0012464,0.00125,0.0012328,0.0012346,0.0012372,0.0012326,0.001231,0.00021,0.0002108,0.00021,0.0002104,0.000211,0.0002108,0.0002102,0.0002106,0.0002102,0.00021,0.00014668,0.00015258,0.0001482,0.00014866,0.00014824,0.0001461,0.00014562,0.00014504,0.00014262,0.00015064
518,0.00013724,0.00013894,0.00013828,0.0001379,0.0001384,0.00013402,0.00013396,0.00013566,0.00013562,0.00013344,0.0007688,0.0007716,0.0007702,0.0007678,0.000772,0.0007682,0.0007696,0.0007716,0.000767,0.0007674,0.00016978,0.00017098,0.0001705,0.0001702,0.00017102,0.00016776,0.0001672,0.00016794,0.0001681,0.00016746,0.00014538,0.00014882,0.00014568,0.00014626,0.00014562,0.0001452,0.0001437,0.00014346,0.00014088,0.00014848
520,0.00012676,0.00012734,0.00012704,0.0001261,0.0001267,0.00012384,0.00012296,0.00012374,0.0001241,0.00012294,0.0004696,0.0004716,0.0004716,0.0004698,0.0004708,0.0004702,0.0004704,0.000472,0.0004692,0.000469,0.00016026,0.00016092,0.00016042,0.00016034,0.00016078,0.00015746,0.00015714,0.0001578,0.00015786,0.00015666,0.0001448,0.00014738,0.00014386,0.00014642,0.00014498,0.00014496,0.00014046,0.00014302,0.0001407,0.00014732
522,0.00012218,0.00012528,0.00012394,0.00012324,0.00012412,0.00011998,0.00012068,0.00012108,0.000121,0.00011956,0.000344,0.0003452,0.0003446,0.000343,0.0003458,0.0003396,0.0003394,0.0003416,0.0003392,0.0003408,0.00015412,0.00015476,0.00015448,0.000154,0.00015426,0.00015162,0.00015078,0.00015132,0.00015144,0.00015128,0.00014184,0.00014666,0.00014216,0.00014252,0.00014286,0.00014276,0.00013906,0.00014172,0.00013978,0.0001439
524,0.000123,0.00012552,0.0001246,0.0001241,0.00012512,0.00012216,0.00012008,0.00012334,0.00012188,0.00011988,0.0002996,0.0003,0.0002996,0.000298,0.0003006,0.0002926,0.0002928,0.000294,0.0002928,0.0002936,0.00014792,0.00014854,0.00014822,0.0001477,0.00014842,0.00014526,0.00014498,0.00014532,0.00014546,0.00014504,0.00013984,0.00014228,0.00013848,0.00014054,0.00014004,0.00014006,0.00013692,0.00013738,0.00013646,0.00014078
526,0.00012504,0.00012662,0.00012506,0.00012548,0.0001267,0.00012294,0.0001213,0.00012414,0.00012356,0.00012266,0.0002784,0.0002772,0.0002772,0.0002772,0.0002784,0.000271,0.0002706,0.0002724,0.0002702,0.0002716,0.00014254,0.00014338,0.0001429,0.00014224,0.00014294,0.00013974,0.00013952,0.00014042,0.00014,0.00013944,0.00013684,0.00013842,0.00013536,0.00013804,0.00013648,0.00013638,0.00013178,0.00013334,0.0001337,0.00013662
528,0.00012658,0.00012844,0.00012626,0.00012714,0.00012828,0.00012362,0.00012328,0.00012542,0.0001247,0.00012416,0.00026,0.0002596,0.0002592,0.0002586,0.000261,0.000253,0.0002522,0.0002544,0.0002528,0.0002544,0.00013774,0.00013826,0.00013726,0.00013696,0.00013736,0.00013432,0.00013418,0.00013508,0.00013434,0.00013416,0.00013204,0.00013444,0.00013142,0.00013216,0.00013222,0.0001317,0.0001267,0.00012768,0.00012922,0.00013184
530,0.00012752,0.00012956,0.00012798,0.0001279,0.00012838,0.0001262,0.00012398,0.00012624,0.00012576,0.00012358,0.0002414,0.0002412,0.0002404,0.00024,0.000242,0.0002342,0.0002336,0.0002364,0.0002342,0.000236,0.00013222,0.00013256,0.00013212,0.0001317,0.0001325,0.00012888,0.00012836,0.00012956,0.00012914,0.0001287,0.000126,0.00012608,0.00012208,0.0001259,0.00012524,0.00012418,0.0001214,0.00012166,0.00012328,0.00012572
532,0.0001289,0.00013074,0.00012978,0.0001289,0.00013098,0.0001271,0.00012648,0.00012834,0.00012774,0.00012666,0.0002272,0.000227,0.000226,0.0002252,0.0002274,0.0002202,0.000221,0.0002218,0.000221,0.0002216,0.00012976,0.00013026,0.00012934,0.00012906,0.00012984,0.00012648,0.000126,0.00012712,0.00012672,0.00012624,0.00012142,0.00012088,0.00011846,0.00012066,0.0001204,0.00011774,0.00011512,0.00011542,0.00011642,0.00011776
534,0.00013052,0.00013226,0.00013116,0.00013136,0.00013264,0.00012742,0.00012756,0.00013036,0.00012796,0.00012738,0.0002148,0.0002154,0.0002134,0.0002124,0.0002152,0.0002086,0.0002084,0.0002092,0.0002084,0.00021,0.0001282,0.00012832,0.00012788,0.00012754,0.00012844,0.00012446,0.00012454,0.0001259,0.00012504,0.00012464,0.00011602,0.00011796,0.000114,0.00011546,0.00011598,0.00011354,0.00011036,0.00011194,0.00011294,0.00011416
536,0.00013088,0.00013216,0.00013174,0.00013188,0.00013406,0.00012878,0.00012792,0.00013076,0.00012892,0.0001276,0.0002038,0.0002042,0.0002026,0.000202,0.0002048,0.00019752,0.00019744,0.00019814,0.0001989,0.00019866,0.0001271,0.00012738,0.00012734,0.00012636,0.0001273,0.00012362,0.0001237,0.00012432,0.00012412,0.00012374,0.00011236,0.00011366,0.00010976,0.00011282,0.00011132,0.00011028,0.00010654,0.00010668,0.00010838,0.00010988
538,0.0001316,0.00013226,0.00013226,0.00013168,0.00013396,0.00012936,0.00012784,0.0001312,0.00012976,0.00012796,0.00019518,0.00019524,0.00019448,0.0001949,0.00019602,0.00018926,0.00018988,0.00019034,0.00018992,0.00019102,0.00012682,0.00012684,0.00012672,0.00012612,0.00012696,0.00012358,0.00012354,0.00012406,0.0001236,0.00012346,0.00011114,0.0001112,0.00010856,0.00011138,0.00011042,0.00010808,0.00010488,0.00010444,0.00010672,0.00010652
540,0.00013052,0.00013098,0.00012964,0.00013016,0.0001328,0.00012894,0.00012742,0.00012986,0.00012778,0.00012788,0.0001897,0.00018954,0.00018772,0.00018802,0.00019012,0.00018352,0.00018406,0.00018456,0.00018432,0.00018478,0.00012692,0.00012708,0.00012696,0.00012612,0.000127,0.0001237,0.0001239,0.0001241,0.00012444,0.00012368,0.00010964,0.00011262,0.00010682,0.00011072,0.00011006,0.00010722,0.00010566,0.00010458,0.00010792,0.00010604
542,0.00012852,0.0001281,0.00012694,0.00012704,0.00012902,0.00012672,0.00012496,0.00012728,0.00012484,0.0001242,0.00018354,0.00018442,0.00018202,0.00018276,0.00018422,0.0001787,0.00017942,0.00018002,0.00018052,0.00017908,0.00012702,0.00012732,0.000127,0.00012628,0.0001275,0.00012364,0.00012442,0.00012442,0.00012492,0.00012358,0.0001122,0.00011328,0.00011094,0.00011248,0.00011264,0.00010794,0.00010654,0.00010604,0.00010798,0.00010682
544,0.00012404,0.00012412,0.00012366,0.0001246,0.00012522,0.00012264,0.00012228,0.00012432,0.00012172,0.00012208,0.00018088,0.00018114,0.00017874,0.00018034,0.0001812,0.0001762,0.00017638,0.0001779,0.00017722,0.00017662,0.00012796,0.00012822,0.0001282,0.00012782,0.0001282,0.00012502,0.00012524,0.0001258,0.00012552,0.00012494,0.0001174,0.00011708,0.00011478,0.00011616,0.0001182,0.0001127,0.00011228,0.00010956,0.00011404,0.00011266
546,0.00011796,0.00011894,0.00011858,0.0001193,0.00012012,0.00011744,0.00011682,0.00011936,0.00011618,0.00011684,0.00017748,0.00017828,0.00017568,0.00017772,0.00017844,0.00017382,0.0001737,0.0001743,0.000174,0.00017408,0.00012852,0.00012822,0.0001286,0.00012802,0.00012842,0.00012528,0.0001261,0.00012638,0.0001261,0.00012532,0.00012306,0.00012448,0.00012116,0.00012254,0.00012522,0.0001183,0.000119,0.00011542,0.00012076,0.0001192
548,0.00011208,0.00011306,0.00011204,0.00011258,0.00011362,0.00011194,0.00011092,0.00011258,0.00011098,0.00011016,0.00017604,0.00017634,0.00017434,0.00017546,0.00017582,0.00017174,0.00017256,0.0001717,0.00017176,0.00017178,0.00012906,0.00012896,0.00012904,0.0001288,0.00012926,0.00012606,0.0001269,0.00012682,0.00012682,0.00012626,0.00013204,0.00013232,0.00012926,0.00013028,0.00013102,0.00012514,0.0001262,0.0001243,0.00012754,0.00012502
550,0.00010592,0.00010672,0.00010686,0.00010502,0.00010798,0.00010494,0.00010378,0.00010594,0.00010442,0.00010436,0.00017508,0.0001754,0.00017398,0.00017432,0.00017416,0.00017076,0.00017108,0.0001708,0.00017126,0.00017058,0.0001301,0.00013,0.0001296,0.00012978,0.00013042,0.00012676,0.0001275,0.00012756,0.00012738,0.00012694,0.00014152,0.0001423,0.00013966,0.00013898,0.00014098,0.00013484,0.00013528,0.00013414,0.00013696,0.00013414
552,0.00010054,0.0001007,9.976e-05,9.986e-05,0.0001021,9.924e-05,9.85e-05,9.932e-05,9.788e-05,9.95e-05,0.00017378,0.00017552,0.00017252,0.00017454,0.00017426,0.00017018,0.00017008,0.00017038,0.00017012,0.00017014,0.00013094,0.0001305,0.00013052,0.00013034,0.0001306,0.00012728,0.00012784,0.0001279,0.00012788,0.00012758,0.00015944,0.00015958,0.00015638,0.00015762,0.00016028,0.00015168,0.00015258,0.00015016,0.00015374,0.00015048
554,9.628e-05,9.644e-05,9.632e-05,9.596e-05,9.72e-05,9.484e-05,9.362e-05,9.46e-05,9.262e-05,9.412e-05,0.00017454,0.00017562,0.00017282,0.00017524,0.0001744,0.00016938,0.0001699,0.00017078,0.00017026,0.00017014,0.00013178,0.00013128,0.00013112,0.000131,0.00013188,0.00012758,0.00012862,0.00012834,0.00012852,0.00012814,0.0002166,0.0002166,0.0002162,0.0002166,0.0002182,0.000204,0.000205,0.0002036,0.0002068,0.0002044
556,9.358e-05,9.42e-05,9.446e-05,9.344e-05,9.554e-05,9.272e-05,9.186e-05,9.216e-05,9.144e-05,9.228e-05,0.00017528,0.00017662,0.00017346,0.0001752,0.00017398,0.00016956,0.00017,0.00017068,0.00017018,0.00016996,0.00013226,0.00013162,0.00013112,0.00013166,0.00013218,0.00012802,0.00012892,0.00012884,0.00012872,0.00012876,0.0003796,0.0003808,0.0003798,0.000379,0.0003832,0.0003534,0.0003546,0.0003532,0.0003574,0.000354
558,9.384e-05,9.462e-05,9.372e-05,9.402e-05,9.578e-05,9.324e-05,9.246e-05,9.142e-05,9.134e-05,9.17e-05,0.0001749,0.00017634,0.00017334,0.00017462,0.00017406,0.00017002,0.00017022,0.0001712,0.00017066,0.00017,0.00013204,0.00013168,0.00013144,0.00013188,0.00013242,0.00012792,0.0001293,0.0001291,0.00012924,0.00012908,0.0007062,0.0007082,0.0007078,0.0007068,0.0007096,0.0006604,0.0006614,0.0006598,0.000664,0.0006618
560,9.644e-05,9.752e-05,9.704e-05,9.698e-05,9.67e-05,9.482e-05,9.464e-05,9.43e-05,9.378e-05,9.39e-05,0.0001744,0.00017566,0.00017344,0.00017486,0.00017364,0.00017016,0.00016968,0.00017074,0.0001711,0.00017026,0.00013184,0.00013144,0.000131,0.00013168,0.00013178,0.00012778,0.00012942,0.00012914,0.00012938,0.00012932,0.0012014,0.0012026,0.001202,0.0012016,0.0012042,0.0011282,0.00113,0.0011294,0.0011344,0.0011348
562,0.00010284,0.00010302,0.00010334,0.00010228,0.00010336,0.00010118,0.00010062,0.00010062,0.00010092,0.00010074,0.00017274,0.00017404,0.00017306,0.0001737,0.00017302,0.00016884,0.00016912,0.00016962,0.00016984,0.0001688,0.00013094,0.0001305,0.00013064,0.00013098,0.0001308,0.00012772,0.00012906,0.00012828,0.0001287,0.00012834,0.0018736,0.0018774,0.0018744,0.0018732,0.0018788,0.0017678,0.0017712,0.0017696,0.0017768,0.0017864
564,0.00012388,0.00012384,0.0001238,0.00012312,0.00012578,0.00012004,0.00012042,0.00011962,0.0001198,0.00011926,0.00017006,0.00017136,0.00016954,0.00017038,0.00017046,0.00016554,0.00016574,0.00016746,0.00016718,0.00016596,0.00012924,0.00012856,0.00012848,0.00012902,0.00012952,0.00012608,0.00012742,0.00012674,0.00012758,0.0001272,0.002838,0.002842,0.002838,0.002836,0.002844,0.002692,0.002694,0.002694,0.002702,0.002736
566,0.0002004,0.0002008,0.0002006,0.0001995,0.0002002,0.00018766,0.00018858,0.0001873,0.00019018,0.00018906,0.00016636,0.00016716,0.00016584,0.00016702,0.0001664,0.00016302,0.00016288,0.00016478,0.00016412,0.00016228,0.00012702,0.00012688,0.00012684,0.00012724,0.00012766,0.00012452,0.00012596,0.00012508,0.00012556,0.00012546,0.003866,0.003874,0.003868,0.003868,0.003876,0.003688,0.003688,0.00369,0.003698,0.003774
568,0.0004112,0.0004116,0.0004116,0.0004118,0.00041,0.0003832,0.0003844,0.000382,0.0003852,0.000386,0.00016218,0.0001627,0.000162,0.00016228,0.00016216,0.00015884,0.00015822,0.00016002,0.00015942,0.0001588,0.0001247,0.0001248,0.00012448,0.0001251,0.00012534,0.0001227,0.0001238,0.00012258,0.00012322,0.00012354,0.004904,0.004914,0.004908,0.004906,0.004916,0.004696,0.004694,0.004696,0.004704,0.004838
570,0.000809,0.0008086,0.000809,0.0008092,0.0008064,0.0007586,0.0007594,0.0007576,0.0007614,0.0007636,0.00015618,0.00015718,0.00015548,0.00015634,0.00015522,0.00015276,0.00015248,0.00015426,0.00015356,0.00015278,0.0001219,0.00012176,0.00012114,0.00012176,0.00012208,0.00011966,0.00012074,0.00011972,0.00012032,0.00012028,0.00591,0.00592,0.005916,0.005912,0.005922,0.005676,0.005674,0.005674,0.005684,0.005884
572,0.0013836,0.0013834,0.001385,0.0013836,0.0013794,0.0013078,0.001307,0.0013056,0.0013118,0.0013138,0.00014938,0.00015054,0.0001503,0.00014994,0.0001486,0.00014736,0.00014684,0.00014852,0.00014706,0.00014662,0.0001195,0.00011952,0.00011896,0.00011972,0.00012008,0.00011756,0.000119,0.000118,0.0001183,0.00011822,0.00682,0.006832,0.006826,0.006822,0.006836,0.006572,0.006568,0.00657,0.006578,0.00684
574,0.002174,0.002174,0.002176,0.002174,0.002168,0.002064,0.002064,0.002064,0.00207,0.002072,0.00014582,0.0001465,0.00014626,0.00014716,0.00014626,0.00014324,0.0001428,0.00014498,0.00014414,0.00014386,0.00011988,0.0001197,0.00011956,0.00012048,0.00012066,0.00011818,0.00011912,0.00011806,0.00011826,0.00011872,0.007612,0.007628,0.007622,0.007616,0.007632,0.00736,0.007352,0.007356,0.007364,0.007662
576,0.003154,0.003152,0.003154,0.003154,0.003148,0.003006,0.003006,0.003006,0.003016,0.003018,0.00015152,0.0001518,0.00015234,0.00015094,0.00015124,0.0001477,0.00014698,0.00014822,0.00014876,0.00014768,0.0001262,0.00012652,0.00012528,0.0001267,0.00012682,0.00012364,0.0001246,0.0001236,0.00012366,0.00012394,0.008256,0.00827,0.008266,0.008258,0.008276,0.007998,0.00799,0.007996,0.008,0.00831
578,0.004108,0.00411,0.00411,0.004112,0.0041,0.00393,0.003934,0.003932,0.003944,0.003946,0.00017374,0.0001739,0.0001738,0.00017338,0.00017318,0.0001669,0.00016698,0.00016882,0.00016838,0.00016732,0.00014102,0.00014106,0.00014004,0.00014116,0.00014116,0.000137,0.0001379,0.00013706,0.00013752,0.00013764,0.008702,0.008716,0.008708,0.008702,0.00872,0.00844,0.008432,0.008438,0.008444,0.008716
580,0.005044,0.005044,0.005046,0.005046,0.005032,0.004836,0.004842,0.004842,0.004856,0.004856,0.0002258,0.000226,0.0002256,0.0002254,0.0002258,0.000215,0.000215,0.0002166,0.0002166,0.0002164,0.00016908,0.00016966,0.00016852,0.00016952,0.00016928,0.00016298,0.00016446,0.0001635,0.00016398,0.00016422,0.008998,0.009012,0.009004,0.009,0.009018,0.008738,0.008732,0.008738,0.00874,0.008924
582,0.005904,0.005904,0.005904,0.005904,0.00589,0.00567,0.005678,0.00568,0.005694,0.005694,0.0003184,0.0003186,0.000319,0.0003184,0.0003176,0.0003024,0.0003018,0.0003034,0.000304,0.0003044,0.0002148,0.0002152,0.0002142,0.0002154,0.0002158,0.0002064,0.0002078,0.0002066,0.000207,0.0002076,0.009156,0.00917,0.009162,0.00916,0.009176,0.008896,0.00889,0.008898,0.0089,0.008968
584,0.006622,0.006624,0.006622,0.006624,0.00661,0.006374,0.006386,0.006386,0.006402,0.006402,0.0004708,0.0004702,0.0004722,0.0004706,0.0004704,0.000445,0.0004456,0.000446,0.0004476,0.0004496,0.0002802,0.0002806,0.00028,0.000281,0.0002808,0.0002684,0.0002692,0.0002688,0.0002692,0.0002694,0.009202,0.009214,0.009206,0.009206,0.009218,0.008942,0.008936,0.008944,0.008948,0.008916
586,0.00717,0.007174,0.007172,0.007174,0.00716,0.006918,0.006934,0.006936,0.00695,0.006948,0.0007612,0.0007596,0.0007624,0.0007604,0.0007606,0.0007188,0.0007188,0.000721,0.0007216,0.0007266,0.0003802,0.0003808,0.0003798,0.0003804,0.0003812,0.0003632,0.0003644,0.0003638,0.0003646,0.0003644,0.009126,0.00914,0.009132,0.009136,0.009144,0.008872,0.00887,0.008874,0.008878,0.008772
588,0.007436,0.007442,0.007442,0.007442,0.007428,0.007192,0.007206,0.00721,0.007226,0.007222,0.001108,0.0011064,0.0011088,0.0011068,0.0011064,0.0010536,0.0010526,0.0010558,0.0010572,0.0010598,0.0004964,0.0004976,0.000496,0.0004968,0.0004974,0.0004734,0.0004752,0.0004752,0.0004756,0.0004752,0.009,0.009016,0.009004,0.00901,0.009018,0.008756,0.008752,0.008758,0.008762,0.00862
590,0.007436,0.007444,0.007448,0.007442,0.007434,0.007212,0.007232,0.007234,0.00725,0.007244,0.0014316,0.0014306,0.0014334,0.0014312,0.0014302,0.0013724,0.0013734,0.0013754,0.0013772,0.00138,0.0006314,0.0006324,0.0006312,0.0006318,0.0006328,0.000602,0.000604,0.0006042,0.0006048,0.0006042,0.00881,0.008826,0.008814,0.008822,0.00883,0.008578,0.008578,0.00858,0.008584,0.008432
592,0.007056,0.007068,0.007074,0.007064,0.00706,0.006878,0.006898,0.006904,0.006916,0.006908,0.0016368,0.0016364,0.0016388,0.0016362,0.0016372,0.0015818,0.0015844,0.0015838,0.001587,0.0015896,0.0007858,0.0007866,0.0007858,0.0007858,0.0007876,0.00075,0.0007516,0.0007516,0.0007526,0.0007526,0.008568,0.008582,0.008572,0.008578,0.008588,0.008352,0.00835,0.008354,0.008356,0.008206
594,0.006258,0.006272,0.00628,0.006266,0.006266,0.006142,0.00616,0.006164,0.006174,0.006164,0.001704,0.0017042,0.001705,0.0017028,0.0017056,0.0016568,0.0016586,0.0016586,0.00166,0.0016628,0.0009594,0.0009604,0.0009596,0.0009596,0.0009612,0.0009168,0.000919,0.0009192,0.00092,0.00092,0.008286,0.0083,0.00829,0.008294,0.008304,0.008086,0.008084,0.008088,0.008088,0.007948
596,0.005058,0.005072,0.005076,0.005066,0.005066,0.004996,0.00501,0.005014,0.00502,0.005008,0.0016616,0.001662,0.0016622,0.0016602,0.0016622,0.00162,0.0016222,0.0016238,0.001624,0.0016246,0.0011618,0.0011622,0.0011618,0.0011614,0.0011638,0.0011138,0.0011152,0.0011156,0.0011168,0.0011162,0.007936,0.00795,0.007938,0.007944,0.007956,0.007754,0.007746,0.007752,0.007752,0.007628
598,0.003918,0.00393,0.003932,0.003926,0.003928,0.003888,0.003898,0.003898,0.003902,0.00389,0.0015646,0.0015644,0.0015674,0.0015652,0.0015654,0.001532,0.0015308,0.0015318,0.0015314,0.0015332,0.0013526,0.001354,0.001353,0.0013522,0.0013558,0.0012988,0.0013008,0.0013014,0.0013024,0.0013016,0.007608,0.007622,0.007612,0.007616,0.007624,0.007436,0.007428,0.007434,0.007434,0.007326
600,0.002916,0.002922,0.002924,0.00292,0.00292,0.002898,0.002906,0.002906,0.002908,0.0029,0.0014708,0.0014704,0.0014716,0.00147,0.0014706,0.0014376,0.001437,0.001437,0.0014368,0.0014388,0.0015436,0.0015452,0.0015442,0.0015432,0.0015474,0.0014846,0.0014864,0.0014874,0.001488,0.0014872,0.007288,0.007304,0.007292,0.007294,0.007304,0.007126,0.007118,0.00712,0.00712,0.007034
602,0.002084,0.002088,0.002088,0.002086,0.002088,0.002072,0.00208,0.00208,0.00208,0.002074,0.0014596,0.0014586,0.0014598,0.0014594,0.0014602,0.0014174,0.0014154,0.0014162,0.0014166,0.0014206,0.001729,0.0017304,0.0017298,0.0017284,0.0017334,0.0016654,0.0016678,0.0016682,0.0016698,0.001668,0.006976,0.006994,0.00698,0.006986,0.006994,0.006824,0.006814,0.006816,0.006816,0.006748
604,0.0014282,0.0014324,0.0014314,0.0014302,0.0014314,0.0014246,0.0014286,0.0014282,0.0014284,0.0014236,0.0016336,0.0016332,0.0016362,0.0016352,0.0016352,0.001575,0.0015724,0.0015726,0.0015744,0.001581,0.0019046,0.0019058,0.001906,0.001904,0.0019098,0.001838,0.0018402,0.001841,0.0018424,0.0018402,0.006676,0.006692,0.00668,0.006686,0.006696,0.00653,0.00652,0.006524,0.006524,0.006466
606,0.0009138,0.0009162,0.000914,0.0009154,0.0009162,0.0009124,0.000915,0.0009158,0.0009138,0.0009118,0.002092,0.00209,0.002094,0.002094,0.002092,0.002006,0.002004,0.002004,0.002008,0.002014,0.00207,0.002072,0.002072,0.00207,0.002076,0.002002,0.002006,0.002006,0.002008,0.002006,0.006322,0.006338,0.006328,0.00633,0.006342,0.006192,0.00618,0.006184,0.006184,0.006138
608,0.000651,0.0006508,0.0006502,0.0006494,0.0006514,0.0006418,0.0006454,0.000646,0.0006454,0.000644,0.002758,0.002756,0.002758,0.002758,0.002756,0.00264,0.002638,0.00264,0.002646,0.002654,0.00217,0.002172,0.002172,0.00217,0.002176,0.002106,0.002108,0.002108,0.00211,0.002108,0.005898,0.005914,0.005906,0.005908,0.005916,0.005792,0.005782,0.005784,0.005784,0.005738
610,0.0005644,0.0005636,0.000561,0.0005626,0.0005622,0.0005504,0.0005514,0.0005532,0.0005524,0.0005524,0.003522,0.003522,0.003524,0.003524,0.00352,0.00338,0.00338,0.003382,0.003388,0.003398,0.002182,0.002182,0.002182,0.00218,0.002186,0.002124,0.002126,0.002128,0.002128,0.002126,0.005354,0.005366,0.005356,0.005358,0.005368,0.005268,0.005262,0.005264,0.005262,0.005212
612,0.0005458,0.000546,0.0005438,0.0005462,0.0005462,0.0005312,0.0005334,0.0005348,0.000533,0.000535,0.004326,0.004326,0.004328,0.00433,0.004326,0.004162,0.004162,0.004166,0.004172,0.004184,0.002092,0.002094,0.002094,0.002092,0.002098,0.002048,0.002048,0.00205,0.002052,0.00205,0.00469,0.004702,0.00469,0.004696,0.004704,0.00463,0.004626,0.004626,0.004624,0.004578
614,0.0005548,0.0005548,0.000551,0.0005532,0.000553,0.0005366,0.0005392,0.0005406,0.0005396,0.0005412,0.005112,0.005114,0.005114,0.005116,0.00511,0.00493,0.004932,0.004938,0.004944,0.004956,0.0019078,0.0019078,0.0019072,0.0019078,0.001911,0.0018766,0.0018766,0.0018794,0.00188,0.001879,0.003982,0.003992,0.003982,0.003986,0.003992,0.00394,0.003936,0.003938,0.003936,0.0039
616,0.000572,0.0005722,0.0005698,0.0005694,0.0005708,0.0005544,0.0005554,0.000557,0.0005566,0.0005574,0.005878,0.00588,0.00588,0.005884,0.005874,0.005684,0.005688,0.005696,0.005702,0.005714,0.0016142,0.0016136,0.0016134,0.0016136,0.0016166,0.0015986,0.0015984,0.001601,0.001601,0.0016004,0.003206,0.003214,0.003206,0.003206,0.003212,0.00318,0.003176,0.003178,0.003176,0.003158
618,0.000591,0.0005938,0.0005914,0.0005896,0.0005918,0.0005748,0.0005774,0.0005806,0.0005766,0.0005786,0.00646,0.006464,0.006464,0.006466,0.00646,0.006266,0.006274,0.00628,0.006288,0.0063,0.0012796,0.0012798,0.0012798,0.0012798,0.0012824,0.0012772,0.001277,0.0012784,0.0012786,0.0012772,0.002472,0.002476,0.002468,0.002472,0.002476,0.00246,0.002456,0.002456,0.002458,0.002448
620,0.0006166,0.0006174,0.0006156,0.0006142,0.0006176,0.0005986,0.0006014,0.000602,0.0005996,0.0006028,0.006822,0.006826,0.006824,0.006828,0.00682,0.006632,0.006642,0.006648,0.006654,0.006664,0.0009488,0.0009488,0.0009486,0.000949,0.0009508,0.0009544,0.0009542,0.000955,0.0009542,0.0009534,0.0018114,0.0018166,0.0018086,0.00181,0.0018132,0.0018126,0.001809,0.001809,0.0018068,0.0018062
622,0.000654,0.0006554,0.0006516,0.000651,0.0006542,0.0006344,0.000636,0.000638,0.0006338,0.00064,0.007012,0.007018,0.007016,0.007018,0.007012,0.006828,0.006838,0.006844,0.00685,0.006856,0.0006488,0.0006482,0.000648,0.0006484,0.0006498,0.000656,0.000656,0.0006566,0.0006546,0.000655,0.0012276,0.0012294,0.0012238,0.0012274,0.0012302,0.001236,0.001234,0.0012334,0.001229,0.0012342
624,0.0007102,0.000712,0.000708,0.0007064,0.00071,0.0006864,0.000689,0.00069,0.0006876,0.0006912,0.007048,0.007056,0.00705,0.007054,0.007048,0.006872,0.00688,0.006888,0.006892,0.006898,0.000464,0.0004628,0.0004644,0.0004636,0.000464,0.0004632,0.0004618,0.000463,0.000462,0.0004616,0.0008326,0.0008328,0.000827,0.00083,0.0008322,0.0008338,0.0008316,0.0008274,0.0008278,0.0008318
626,0.0007958,0.0007976,0.0007948,0.0007928,0.0007946,0.0007708,0.00077,0.0007704,0.0007686,0.000772,0.006944,0.006952,0.006948,0.006948,0.006946,0.00678,0.006788,0.006796,0.006798,0.006798,0.0005028,0.0005016,0.0005032,0.0005022,0.0005026,0.0004814,0.0004816,0.0004828,0.0004832,0.0004824,0.0007602,0.0007612,0.0007558,0.0007592,0.00076,0.0007446,0.0007392,0.0007382,0.0007406,0.0007438
628,0.0008974,0.0009012,0.0008978,0.0008954,0.0008996,0.000869,0.00087,0.00087,0.0008674,0.0008742,0.00673,0.00674,0.006734,0.006736,0.006734,0.006582,0.006588,0.006594,0.006596,0.006594,0.0007402,0.0007398,0.0007408,0.0007392,0.0007406,0.0007004,0.0007012,0.0007032,0.0007038,0.0007026,0.0009886,0.0009904,0.000985,0.0009902,0.000989,0.0009534,0.0009478,0.000949,0.0009502,0.0009548
630,0.0010078,0.00101,0.001007,0.0010054,0.001008,0.000975,0.000977,0.0009758,0.0009732,0.0009782,0.00647,0.00648,0.006474,0.006476,0.006474,0.006336,0.00634,0.006346,0.006342,0.00634,0.0010476,0.0010462,0.001048,0.0010456,0.0010476,0.000995,0.0009958,0.0009968,0.0009978,0.0009974,0.0013222,0.0013214,0.001318,0.0013218,0.0013246,0.0012744,0.001272,0.001269,0.001272,0.0012756
632,0.0011178,0.001119,0.0011192,0.0011158,0.0011184,0.001083,0.001084,0.0010812,0.00108,0.0010838,0.006174,0.006184,0.006178,0.00618,0.006178,0.006052,0.006054,0.006056,0.006054,0.006052,0.0013722,0.001371,0.001373,0.00137,0.0013726,0.0013094,0.0013106,0.001311,0.0013126,0.0013126,0.001683,0.0016814,0.0016778,0.0016828,0.001684,0.001626,0.001622,0.0016186,0.0016214,0.0016238
634,0.0012292,0.00123,0.0012314,0.0012282,0.0012292,0.0011896,0.0011906,0.0011896,0.0011866,0.0011926,0.005862,0.00587,0.005866,0.005868,0.005866,0.00575,0.00575,0.005752,0.005746,0.005746,0.0016978,0.0016968,0.0016986,0.0016956,0.0016988,0.001625,0.0016268,0.0016272,0.0016288,0.001629,0.002042,0.002044,0.002038,0.002042,0.002046,0.0019756,0.0019724,0.0019692,0.001972,0.0019774
636,0.0013486,0.0013462,0.0013472,0.0013446,0.001347,0.001306,0.001304,0.0013028,0.0013018,0.001308,0.005514,0.005522,0.00552,0.00552,0.005518,0.00541,0.00541,0.005412,0.005406,0.005406,0.002044,0.002044,0.002046,0.002042,0.002048,0.0019634,0.0019658,0.0019648,0.0019672,0.0019668,0.002428,0.002432,0.002422,0.00243,0.002432,0.002352,0.002348,0.002346,0.00235,0.00235
638,0.0014484,0.0014502,0.0014496,0.001449,0.0014492,0.0014032,0.0014044,0.0014036,0.0014028,0.0014062,0.00521,0.005218,0.005216,0.005216,0.005212,0.00511,0.00511,0.005112,0.00511,0.005106,0.002346,0.002346,0.002346,0.002344,0.002348,0.002258,0.002262,0.00226,0.002262,0.002262,0.002766,0.002766,0.00276,0.002766,0.002766,0.002682,0.002678,0.002674,0.002676,0.002676
640,0.0015476,0.0015478,0.0015484,0.0015474,0.0015464,0.001501,0.0015018,0.001499,0.0014988,0.001501,0.00495,0.004958,0.004956,0.004956,0.004954,0.004854,0.004854,0.004856,0.004856,0.004852,0.0026,0.0026,0.0026,0.002598,0.002604,0.00251,0.002514,0.002512,0.002514,0.002514,0.00303,0.003032,0.003024,0.003028,0.003032,0.002944,0.002942,0.002938,0.002938,0.00294
642,0.0016446,0.0016446,0.0016432,0.0016432,0.001642,0.001595,0.0015956,0.0015916,0.0015922,0.0015968,0.004724,0.004732,0.004728,0.00473,0.004728,0.00463,0.004632,0.004632,0.004632,0.00463,0.002788,0.002788,0.002788,0.002786,0.002792,0.0027,0.002704,0.002702,0.002706,0.002704,0.00318,0.003186,0.003178,0.003182,0.003184,0.003102,0.0031,0.003096,0.003096,0.003096
644,0.0017364,0.0017384,0.001738,0.0017368,0.001737,0.0016874,0.001687,0.0016852,0.0016876,0.00169,0.004538,0.004544,0.00454,0.00454,0.004538,0.004444,0.004448,0.004454,0.00445,0.004448,0.002906,0.002906,0.002906,0.002904,0.00291,0.002824,0.002828,0.002826,0.002828,0.002828,0.003222,0.003228,0.003222,0.00323,0.003228,0.003154,0.003152,0.003148,0.003148,0.003144
646,0.0018478,0.00185,0.0018506,0.0018484,0.0018502,0.001797,0.0018004,0.0017994,0.0018012,0.0018028,0.00436,0.004366,0.004362,0.004364,0.00436,0.004274,0.004276,0.004282,0.004282,0.004276,0.002962,0.002966,0.002964,0.002962,0.002968,0.002888,0.002892,0.002892,0.002894,0.002894,0.003204,0.003212,0.003206,0.003216,0.00321,0.00314,0.003142,0.003136,0.00314,0.003136
648,0.0019456,0.001948,0.0019464,0.0019472,0.0019444,0.001895,0.0018988,0.0018976,0.0019008,0.0019,0.004222,0.004228,0.004222,0.004226,0.004222,0.004142,0.004148,0.004152,0.004152,0.004148,0.00298,0.002982,0.00298,0.002978,0.002984,0.00291,0.002914,0.002914,0.002918,0.002916,0.003176,0.003184,0.00318,0.003186,0.003184,0.003118,0.00312,0.003116,0.003122,0.003108
650,0.002016,0.002018,0.002022,0.00202,0.002018,0.0019696,0.0019734,0.0019722,0.0019756,0.0019734,0.00407,0.004076,0.00407,0.004072,0.004068,0.003998,0.004002,0.004008,0.004006,0.004004,0.002962,0.002964,0.002962,0.002962,0.002968,0.0029,0.002904,0.002904,0.002908,0.002908,0.003122,0.003126,0.003124,0.003128,0.003126,0.003068,0.00307,0.003064,0.00307,0.003058
652,0.00206,0.00206,0.002064,0.002064,0.002058,0.002014,0.002018,0.002018,0.002022,0.002018,0.003878,0.003884,0.00388,0.003882,0.00388,0.003812,0.00382,0.003824,0.003824,0.00382,0.002886,0.002888,0.002886,0.002886,0.002892,0.002834,0.002838,0.002838,0.00284,0.002842,0.003008,0.003012,0.003008,0.003012,0.003008,0.00296,0.00296,0.002958,0.002962,0.002946
654,0.00209,0.002092,0.002094,0.002094,0.002082,0.002044,0.002044,0.002048,0.002052,0.00205,0.003682,0.003686,0.003682,0.003684,0.00368,0.00362,0.003624,0.00363,0.003628,0.003628,0.002734,0.002736,0.002732,0.002734,0.002738,0.002694,0.002698,0.002698,0.0027,0.0027,0.00281,0.002814,0.002814,0.002818,0.002812,0.00277,0.002774,0.002772,0.002774,0.002762
656,0.002118,0.002122,0.002124,0.002124,0.002118,0.002076,0.002074,0.002076,0.002084,0.002078,0.003494,0.003496,0.003496,0.003494,0.003496,0.003432,0.00344,0.003442,0.00344,0.00344,0.002456,0.00246,0.002454,0.002458,0.002462,0.002434,0.002436,0.002436,0.002438,0.00244,0.002494,0.0025,0.002498,0.0025,0.0025,0.002466,0.002468,0.002464,0.00247,0.002454
658,0.002152,0.002154,0.002158,0.002156,0.00215,0.002106,0.002104,0.002108,0.002118,0.002108,0.003358,0.003362,0.00336,0.003362,0.003362,0.003296,0.003302,0.003304,0.003304,0.003302,0.002142,0.002146,0.00214,0.002144,0.002148,0.00213,0.002132,0.002132,0.002134,0.002132,0.002172,0.002176,0.00217,0.002178,0.002176,0.002148,0.002152,0.002144,0.00215,0.002134
660,0.002182,0.002184,0.002188,0.002186,0.00218,0.002136,0.002132,0.002134,0.002144,0.002132,0.003248,0.003252,0.003246,0.003248,0.003248,0.003184,0.003186,0.003188,0.003188,0.003184,0.001807,0.0018104,0.0018064,0.0018084,0.0018128,0.0018014,0.0018022,0.0018018,0.001803,0.0018022,0.0018376,0.0018416,0.0018408,0.0018462,0.0018406,0.0018168,0.0018208,0.0018158,0.0018172,0.0018074
662,0.002202,0.002202,0.002208,0.002206,0.002198,0.00215,0.002148,0.002152,0.002158,0.002148,0.003136,0.003142,0.003138,0.003138,0.003138,0.003072,0.003074,0.003074,0.003074,0.003072,0.0014678,0.0014712,0.0014674,0.0014698,0.001472,0.0014664,0.0014674,0.001466,0.0014662,0.0014666,0.001501,0.001507,0.0015044,0.0015094,0.0015044,0.0014856,0.0014894,0.0014824,0.0014864,0.0014756
664,0.00218,0.002184,0.002186,0.002188,0.00218,0.002132,0.002128,0.002132,0.002138,0.002126,0.002996,0.003,0.002996,0.002998,0.002998,0.00293,0.002936,0.002934,0.00293,0.002928,0.0011124,0.0011164,0.0011132,0.0011142,0.0011168,0.001115,0.0011164,0.0011144,0.0011146,0.0011136,0.0011498,0.0011524,0.001154,0.001156,0.0011548,0.0011388,0.0011414,0.0011334,0.0011392,0.0011288
666,0.00207,0.002072,0.002076,0.002074,0.002062,0.002028,0.002018,0.00203,0.00203,0.00202,0.002768,0.00277,0.002766,0.002768,0.002768,0.00271,0.00271,0.002708,0.002708,0.002702,0.0007664,0.00077,0.0007672,0.0007688,0.0007714,0.0007752,0.0007754,0.0007736,0.0007736,0.0007726,0.0008064,0.0008082,0.000805,0.0008112,0.000811,0.000806,0.0008036,0.0008002,0.0008006,0.0007948
668,0.001879,0.0018836,0.0018872,0.0018882,0.0018766,0.0018452,0.0018392,0.001844,0.001849,0.001834,0.00247,0.002474,0.002468,0.002472,0.002474,0.00242,0.002422,0.002416,0.002418,0.002412,0.0004876,0.0004904,0.0004888,0.0004908,0.0004914,0.0004978,0.000499,0.0004974,0.0004966,0.0004964,0.0005282,0.0005282,0.0005264,0.0005298,0.0005292,0.0005258,0.0005264,0.0005236,0.0005244,0.0005216
670,0.0016458,0.0016504,0.0016532,0.0016532,0.001642,0.0016188,0.00161,0.0016166,0.0016196,0.0016076,0.002132,0.002134,0.00213,0.002134,0.002136,0.002092,0.002092,0.002088,0.00209,0.002082,0.0002902,0.0002936,0.0002906,0.0002934,0.0002934,0.0002982,0.0002982,0.0002976,0.000298,0.0002968,0.0003312,0.00033,0.000331,0.000334,0.0003302,0.0003258,0.0003262,0.0003222,0.0003264,0.0003256
672,0.0013868,0.0013902,0.001394,0.0013972,0.0013888,0.0013724,0.001362,0.0013706,0.001368,0.0013608,0.0017808,0.0017796,0.0017796,0.0017818,0.0017844,0.0017504,0.0017478,0.0017492,0.0017494,0.001741,0.0001897,0.00019272,0.00018966,0.00019102,0.00019224,0.00019384,0.00019318,0.00019298,0.00019388,0.00019278,0.0002298,0.0002302,0.0002314,0.000233,0.000235,0.0002204,0.0002236,0.000223,0.0002248,0.0002264
674,0.0010908,0.0010928,0.0010992,0.0010974,0.0010878,0.0010814,0.0010734,0.0010814,0.0010846,0.001072,0.0013888,0.0013922,0.0013922,0.001393,0.0013966,0.001372,0.0013716,0.0013686,0.0013702,0.0013676,0.00014948,0.00015324,0.00014924,0.0001511,0.00015196,0.0001511,0.00015058,0.00015102,0.0001521,0.00014986,0.0001903,0.00018708,0.00019032,0.0001898,0.0001917,0.00017716,0.00017898,0.0001788,0.00018282,0.000192
676,0.0008212,0.0008244,0.0008252,0.000829,0.0008184,0.0008198,0.000811,0.0008174,0.0008204,0.000809,0.0010446,0.0010476,0.0010466,0.0010482,0.0010504,0.0010382,0.0010392,0.0010356,0.0010376,0.001031,0.00013548,0.00013872,0.0001364,0.00013776,0.00013936,0.00013664,0.0001376,0.00013694,0.00013776,0.00013576,0.00017366,0.00017538,0.00017722,0.00017856,0.00017886,0.00016774,0.00016498,0.00016702,0.00017036,0.00017146
678,0.0005718,0.0005758,0.0005792,0.0005832,0.0005692,0.0005796,0.0005716,0.0005796,0.0005812,0.000569,0.0007384,0.000741,0.0007396,0.0007392,0.0007446,0.0007402,0.000739,0.0007376,0.0007374,0.000733,0.00012704,0.0001314,0.00012896,0.00012994,0.00013126,0.0001293,0.00013046,0.0001298,0.00013008,0.00012894,0.00016584,0.00016694,0.00016724,0.00017014,0.00017072,0.00015998,0.0001612,0.00016098,0.00016054,0.00017048
680,0.0003692,0.0003706,0.000371,0.0003746,0.0003646,0.0003758,0.000369,0.0003736,0.0003774,0.0003702,0.0004828,0.0004888,0.0004868,0.0004864,0.0004904,0.0004884,0.0004892,0.0004874,0.0004878,0.000487,0.00012246,0.00012588,0.00012366,0.00012464,0.0001261,0.00012512,0.00012358,0.00012456,0.00012482,0.00012338,0.00016192,0.00016544,0.00016416,0.00016946,0.00016518,0.00015312,0.00015804,0.0001559,0.0001549,0.00016664
682,0.0002352,0.0002414,0.000242,0.0002456,0.0002356,0.0002474,0.0002358,0.0002448,0.0002458,0.0002406,0.000318,0.0003218,0.0003224,0.0003242,0.0003258,0.0003238,0.0003264,0.0003248,0.000327,0.000321,0.0001203,0.00012354,0.00012144,0.00012194,0.00012412,0.00012252,0.00012198,0.00012276,0.00012386,0.00012012,0.00015676,0.00016114,0.00016312,0.00016534,0.00016148,0.00015168,0.0001552,0.00015578,0.00015406,0.00016442
684,0.00018194,0.00018156,0.00018312,0.00018866,0.00017988,0.00018628,0.00017814,0.00018486,0.00018158,0.0001807,0.0002412,0.0002416,0.0002486,0.000248,0.0002532,0.0002486,0.0002474,0.0002484,0.0002498,0.000248,0.00011688,0.00011856,0.00011842,0.0001179,0.00012012,0.00011944,0.00012008,0.00012104,0.00012082,0.0001181,0.00015666,0.0001591,0.00015904,0.00015846,0.0001609,0.0001549,0.00015206,0.00015484,0.00014872,0.00017196
686,0.00016304,0.00016516,0.00016348,0.00016878,0.00015924,0.0001667,0.00016088,0.00016402,0.0001626,0.00016206,0.0002146,0.000215,0.000221,0.000218,0.0002226,0.0002204,0.0002186,0.0002184,0.0002208,0.000223,0.00011222,0.00011398,0.00011408,0.00011294,0.0001151,0.000115,0.00011374,0.0001159,0.00011616,0.00011306,0.00015202,0.00015504,0.00015396,0.0001513,0.0001563,0.00014722,0.00014612,0.00014932,0.00014836,0.00016304
688,0.00015332,0.00015356,0.0001535,0.00015652,0.00014878,0.0001553,0.00014934,0.00015444,0.00015184,0.00015216,0.00019842,0.0001987,0.0002002,0.0002008,0.0002024,0.0002036,0.00019932,0.00019978,0.0002038,0.0002026,0.00010716,0.00010856,0.00010904,0.000108,0.00010986,0.00010892,0.0001082,0.00011038,0.00011034,0.0001086,0.0001464,0.00014828,0.00015008,0.00015058,0.00014906,0.00014404,0.0001405,0.00014986,0.00014186,0.0001647
690,0.0001467,0.00014688,0.00014284,0.00014884,0.00013958,0.00014476,0.0001425,0.00014788,0.00014556,0.00014414,0.00018192,0.0001827,0.000185,0.00018536,0.00018798,0.00019004,0.0001821,0.00018384,0.00018726,0.00018984,0.0001026,0.00010252,0.00010274,0.0001023,0.0001031,0.00010406,0.00010336,0.00010484,0.00010534,0.00010306,0.00014292,0.00013954,0.0001433,0.00014412,0.0001435,0.00013962,0.00013248,0.00014314,0.00013832,0.0001611
692,0.00013532,0.00013918,0.0001317,0.0001374,0.00013154,0.00013346,0.00013162,0.00013616,0.00013376,0.00013524,0.00016268,0.00016466,0.00016876,0.00017002,0.00017234,0.0001748,0.00016742,0.00017076,0.00017116,0.00017472,9.574e-05,9.432e-05,9.492e-05,9.448e-05,9.54e-05,9.706e-05,9.766e-05,9.74e-05,9.674e-05,9.5e-05,0.0001374,0.00013504,0.00013538,0.00013806,0.00013746,0.00013562,0.00012964,0.0001382,0.00012944,0.0001536
694,0.0001247,0.00012942,0.0001263,0.00012678,0.00012414,0.00012252,0.0001215,0.00012662,0.00012274,0.00012528,0.00015006,0.0001481,0.00015188,0.0001564,0.0001566,0.00015858,0.00015028,0.00015576,0.00015584,0.00015994,8.822e-05,8.74e-05,8.912e-05,8.772e-05,8.906e-05,8.852e-05,9.158e-05,9.076e-05,9.028e-05,8.85e-05,0.00012518,0.00012618,0.00012624,0.00012856,0.00012918,0.00013032,0.00012122,0.00013016,0.0001204,0.0001525
696,0.00011746,0.00011612,0.00011878,0.0001204,0.00012054,0.00011624,0.00011414,0.00011822,0.00011432,0.0001216,0.00013596,0.00013418,0.00014026,0.00014304,0.00014676,0.00014464,0.00013836,0.00014122,0.00014476,0.0001464,8.188e-05,8.024e-05,8.404e-05,8.168e-05,8.14e-05,8.31e-05,8.454e-05,8.356e-05,8.374e-05,8.16e-05,0.00011572,0.00011762,0.0001191,0.00012004,0.0001252,0.0001258,0.00011216,0.0001255,0.00011752,0.00014688
698,0.00011274,0.0001124,0.00011056,0.00011332,0.00011538,0.00010756,0.00011066,0.00011072,0.00010764,0.00011738,0.0001251,0.00012214,0.00013048,0.0001323,0.00012984,0.00013228,0.00012928,0.00013156,0.0001338,0.0001352,7.768e-05,7.456e-05,7.794e-05,7.6e-05,7.584e-05,7.64e-05,7.906e-05,7.816e-05,7.768e-05,7.688e-05,0.00011058,0.00011012,0.00011958,0.00012054,0.00012054,0.00011856,0.0001077,0.00012122,0.00011136,0.00013932
700,0.0001066,0.00010316,0.00010178,0.0001048,0.00011032,0.00010054,0.00010754,0.00010282,9.926e-05,0.00010894,0.00011732,0.0001153,0.00012308,0.00012224,0.0001188,0.00012618,0.00011562,0.00012046,0.00012544,0.00012628,7.32e-05,6.91e-05,7.252e-05,7.05e-05,7.086e-05,7.156e-05,7.452e-05,7.334e-05,7.23e-05,7.2e-05,0.00011054,0.00010368,0.00011402,0.00011406,0.00011452,0.00011404,0.00010402,0.00011686,0.00010424,0.00013678
702,0.00010274,0.00010164,9.92e-05,9.806e-05,0.00010172,9.552e-05,0.00010172,9.268e-05,9.23e-05,0.00010188,0.0001077,0.00010648,0.00011286,0.00011532,0.00011494,0.00011296,0.0001064,0.0001144,0.00011322,0.00011998,6.872e-05,6.512e-05,6.884e-05,6.66e-05,6.582e-05,6.788e-05,6.916e-05,6.968e-05,6.762e-05,6.602e-05,0.00010006,0.0001012,0.00010674,0.00010922,0.0001077,0.0001151,0.00010058,0.00010808,0.00010162,0.00012406
704,9.892e-05,9.69e-05,9.34e-05,9.502e-05,9.874e-05,8.852e-05,9.952e-05,8.658e-05,8.994e-05,9.72e-05,0.00010336,0.00010056,0.00010672,0.00010834,0.00010554,0.00010468,0.00010462,0.0001089,0.00011048,0.00011308,6.408e-05,6.218e-05,6.432e-05,6.296e-05,6.33e-05,6.414e-05,6.678e-05,6.55e-05,6.386e-05,6.262e-05,0.0001003,9.786e-05,0.00010788,0.00010224,9.916e-05,0.00011026,9.824e-05,0.0001088,9.776e-05,0.00012108
706,9.336e-05,9.134e-05,8.932e-05,9.218e-05,9.44e-05,8.482e-05,9.448e-05,8.286e-05,8.706e-05,9.378e-05,9.878e-05,9.562e-05,0.00010066,0.00010454,9.792e-05,0.0001033,0.00010196,0.0001045,0.0001058,0.00010848,6.07e-05,5.738e-05,6.156e-05,5.834e-05,5.988e-05,5.998e-05,6.33e-05,6.238e-05,6.058e-05,5.908e-05,9.734e-05,0.00010144,9.89e-05,9.976e-05,9.92e-05,0.00010664,9.626e-05,9.956e-05,9.828e-05,0.00012012
708,9.13e-05,9.232e-05,8.714e-05,8.732e-05,9.402e-05,8.348e-05,9.006e-05,8.204e-05,8.736e-05,8.974e-05,9.608e-05,9.164e-05,9.678e-05,9.934e-05,9.334e-05,9.574e-05,9.92e-05,0.00010332,0.0001006,0.00010318,5.884e-05,5.504e-05,5.846e-05,5.622e-05,5.824e-05,5.648e-05,6.008e-05,5.948e-05,5.774e-05,5.75e-05,9.542e-05,9.51e-05,9.126e-05,9.878e-05,9.938e-05,0.00010398,9.254e-05,0.0001031,9.396e-05,0.00011264
710,8.86e-05,9.034e-05,8.512e-05,8.578e-05,9.192e-05,8.098e-05,9.106e-05,7.726e-05,7.88e-05,8.246e-05,9.418e-05,8.688e-05,9.742e-05,9.5e-05,8.78e-05,9.462e-05,9.352e-05,9.514e-05,9.766e-05,0.00010116,5.686e-05,5.368e-05,5.608e-05,5.39e-05,5.61e-05,5.516e-05,5.838e-05,5.654e-05,5.688e-05,5.39e-05,9.782e-05,8.694e-05,0.00010044,9.156e-05,9.158e-05,0.00010384,9.322e-05,9.92e-05,9.524e-05,0.0001137
712,8.938e-05,8.906e-05,8.434e-05,7.988e-05,9.266e-05,7.502e-05,8.898e-05,7.348e-05,7.812e-05,8.386e-05,9.382e-05,9.004e-05,9.064e-05,9.608e-05,8.746e-05,9.302e-05,8.97e-05,9.546e-05,9.72e-05,9.85e-05,5.644e-05,5.26e-05,5.462e-05,5.178e-05,5.25e-05,5.336e-05,5.752e-05,5.598e-05,5.396e-05,5.36e-05,9.49e-05,9.27e-05,9.116e-05,8.444e-05,9.362e-05,0.00010074,9.842e-05,9.496e-05,9.242e-05,0.00011006
714,8.518e-05,8.514e-05,8.032e-05,8.006e-05,8.838e-05,7.588e-05,8.606e-05,7.28e-05,7.42e-05,8.418e-05,9.426e-05,8.816e-05,8.828e-05,9.212e-05,8.508e-05,8.604e-05,8.844e-05,9.198e-05,9.29e-05,9.674e-05,5.402e-05,5.158e-05,5.352e-05,5.07e-05,5.136e-05,5.07e-05,5.644e-05,5.346e-05,5.136e-05,5.17e-05,8.988e-05,9.056e-05,9.902e-05,8.046e-05,8.534e-05,9.786e-05,9.364e-05,9.604e-05,9.298e-05,0.0001022
716,7.918e-05,7.99e-05,7.774e-05,7.484e-05,8.36e-05,7.03e-05,8.184e-05,7.044e-05,6.91e-05,7.698e-05,9.274e-05,8.484e-05,8.628e-05,9.036e-05,7.996e-05,8.47e-05,8.544e-05,8.91e-05,8.774e-05,9.454e-05,4.99e-05,4.738e-05,5.078e-05,4.778e-05,4.712e-05,4.846e-05,5.36e-05,5.064e-05,4.948e-05,4.77e-05,8.374e-05,8.652e-05,9.266e-05,7.662e-05,8.61e-05,9.576e-05,9.026e-05,8.996e-05,9.096e-05,0.00010172
718,7.546e-05,7.618e-05,7.006e-05,6.908e-05,8.148e-05,6.816e-05,8.298e-05,6.33e-05,7.204e-05,7.626e-05,8.894e-05,8.486e-05,8.338e-05,8.582e-05,7.764e-05,7.932e-05,8.134e-05,8.28e-05,8.69e-05,8.968e-05,4.924e-05,4.444e-05,4.782e-05,4.49e-05,4.384e-05,4.654e-05,4.884e-05,4.886e-05,4.652e-05,4.672e-05,8.32e-05,7.646e-05,8.26e-05,7.196e-05,7.698e-05,8.472e-05,8.466e-05,8.114e-05,8.754e-05,8.246e-05
720,7.726e-05,7.08e-05,6.55e-05,6.796e-05,7.36e-05,6.574e-05,7.268e-05,6.276e-05,6.004e-05,7.042e-05,8.66e-05,7.786e-05,7.5e-05,7.988e-05,6.774e-05,7.758e-05,7.97e-05,7.822e-05,8.254e-05,8.5e-05,4.502e-05,4.128e-05,4.33e-05,4.154e-05,4.162e-05,4.396e-05,4.56e-05,4.55e-05,4.404e-05,4.314e-05,8.21e-05,7.708e-05,8.024e-05,7.172e-05,7.41e-05,8.096e-05,8.646e-05,7.712e-05,8.148e-05,7.166e-05
722,6.96e-05,6.41e-05,6.346e-05,5.936e-05,6.774e-05,5.652e-05,6.872e-05,5.982e-05,5.954e-05,6.624e-05,8.012e-05,7.672e-05,7.184e-05,7.644e-05,6.532e-05,7.368e-05,7.83e-05,7.188e-05,7.586e-05,8.11e-05,4.178e-05,3.94e-05,3.964e-05,3.854e-05,3.808e-05,4.266e-05,4.47e-05,4.288e-05,4.17e-05,4.182e-05,8.312e-05,6.952e-05,7.548e-05,6.602e-05,6.978e-05,7.714e-05,7.882e-05,7.15e-05,8.172e-05,6.886e-05
724,6.86e-05,6.226e-05,5.632e-05,5.802e-05,6.724e-05,5.448e-05,7e-05,5.484e-05,6.176e-05,6.194e-05,7.926e-05,7.5e-05,7.564e-05,7.112e-05,6.414e-05,6.928e-05,7.85e-05,7.254e-05,7.436e-05,7.61e-05,4.104e-05,3.698e-05,3.83e-05,3.624e-05,3.644e-05,4.178e-05,4.386e-05,4.194e-05,4.218e-05,4.064e-05,8.086e-05,7.046e-05,7.442e-05,5.854e-05,6.928e-05,7.524e-05,7.258e-05,6.572e-05,8.224e-05,5.814e-05
726,6.282e-05,5.794e-05,5.1e-05,5.638e-05,6.398e-05,6.212e-05,6.778e-05,6.254e-05,5.428e-05,5.698e-05,7.998e-05,7.666e-05,7.114e-05,7.354e-05,6.434e-05,6.784e-05,7.85e-05,7.158e-05,7.848e-05,7.588e-05,3.836e-05,3.644e-05,3.802e-05,3.756e-05,3.634e-05,4.146e-05,4.052e-05,3.976e-05,4.048e-05,3.97e-05,7.466e-05,7.06e-05,7.546e-05,6.058e-05,6.674e-05,6.314e-05,8.358e-05,6.676e-05,8.21e-05,7.228e-05
728,6.166e-05,5.246e-05,4.906e-05,4.934e-05,5.782e-05,5.894e-05,6.022e-05,5.862e-05,5.286e-05,5.258e-05,8.12e-05,7.576e-05,7.128e-05,6.766e-05,6.88e-05,7.23e-05,7.56e-05,7.198e-05,7.49e-05,7.946e-05,3.946e-05,3.652e-05,3.768e-05,3.658e-05,3.62e-05,4.112e-05,4.248e-05,4.024e-05,4.126e-05,4.114e-05,6.944e-05,6.922e-05,6.878e-05,5.948e-05,6.572e-05,7.3e-05,7.218e-05,6.35e-05,8.68e-05,6.47e-05
730,6.158e-05,5.412e-05,4.868e-05,5.254e-05,5.344e-05,6.202e-05,6.066e-05,5.362e-05,5.07e-05,5.152e-05,7.718e-05,7.436e-05,6.874e-05,6.956e-05,6.26e-05,7.276e-05,7.836e-05,7.362e-05,7.638e-05,7.418e-05,3.79e-05,3.64e-05,3.598e-05,3.576e-05,3.714e-05,4.206e-05,4.116e-05,3.934e-05,4.112e-05,4.1e-05,7.502e-05,6.61e-05,6.808e-05,6.13e-05,6.684e-05,6.676e-05,7.826e-05,6.41e-05,8.766e-05,5.528e-05
732,5.452e-05,4.986e-05,4.606e-05,5.124e-05,5.036e-05,6.642e-05,6.502e-05,5.356e-05,5.114e-05,5.376e-05,7.408e-05,8.1e-05,7.33e-05,7.136e-05,5.95e-05,7e-05,7.952e-05,6.668e-05,7.654e-05,7.332e-05,3.858e-05,3.686e-05,3.716e-05,3.584e-05,3.672e-05,4.192e-05,4.136e-05,4.044e-05,4.078e-05,4.122e-05,7.594e-05,6.37e-05,6.498e-05,5.42e-05,6.296e-05,6.594e-05,7.856e-05,6.394e-05,8.156e-05,6.31e-05
734,5.308e-05,4.898e-05,4.266e-05,4.5e-05,4.96e-05,5.692e-05,5.914e-05,4.448e-05,5.05e-05,4.844e-05,7.336e-05,7.934e-05,7.496e-05,6.8e-05,5.732e-05,6.886e-05,7.708e-05,6.122e-05,7.212e-05,7.356e-05,3.632e-05,3.45e-05,3.402e-05,3.442e-05,3.378e-05,4.246e-05,4.072e-05,3.812e-05,3.996e-05,3.904e-05,6.874e-05,6.418e-05,6.446e-05,5.082e-05,6.184e-05,5.484e-05,7.466e-05,5.894e-05,7.902e-05,5.714e-05
736,5.388e-05,4.122e-05,3.386e-05,3.926e-05,3.5e-05,5.186e-05,5.318e-05,4.59e-05,4.404e-05,3.664e-05,6.86e-05,7.862e-05,6.596e-05,6.84e-05,5.312e-05,6.778e-05,7.41e-05,5.902e-05,6.33e-05,6.548e-05,3.154e-05,3.118e-05,2.796e-05,3.056e-05,3.132e-05,3.554e-05,3.554e-05,3.454e-05,3.5e-05,3.614e-05,6.154e-05,5.59e-05,5.924e-05,5.634e-05,5.43e-05,5.622e-05,7.79e-05,5.86e-05,7.034e-05,4.276e-05
738,4.176e-05,2.852e-05,2.844e-05,3.152e-05,2.166e-05,4.586e-05,4.37e-05,4.118e-05,4.176e-05,2.686e-05,6.202e-05,7.034e-05,6.08e-05,5.86e-05,5.232e-05,6.198e-05,6.818e-05,5.27e-05,5.994e-05,5.426e-05,2.468e-05,2.816e-05,2.41e-05,2.766e-05,2.758e-05,3.424e-05,3.042e-05,2.938e-05,3.026e-05,3.35e-05,5.026e-05,5.156e-05,5.004e-05,5.08e-05,5.634e-05,4.206e-05,6.52e-05,5.008e-05,6.842e-05,3.352e-05
740,4.01e-05,2.614e-05,2.606e-05,3.07e-05,2.378e-05,4.284e-05,4.222e-05,3.956e-05,3.682e-05,1.6488e-05,5.436e-05,6.51e-05,5.4e-05,5.25e-05,4.728e-05,6.252e-05,6.576e-05,5.62e-05,5.614e-05,5.202e-05,1.9998e-05,2.362e-05,2.066e-05,2.288e-05,2.18e-05,3.124e-05,2.732e-05,2.582e-05,3.038e-05,2.96e-05,4.95e-05,5.354e-05,4.348e-05,4.538e-05,4.736e-05,3.288e-05,6.352e-05,4.068e-05,6.136e-05,2.444e-05
742,3.08e-05,2.368e-05,1.8266e-05,3.228e-05,1.6572e-05,4.466e-05,3.11e-05,3.126e-05,3.448e-05,1.881e-05,5.71e-05,6.238e-05,5.246e-05,5.19e-05,4.676e-05,6.072e-05,6.328e-05,5.226e-05,4.94e-05,5.462e-05,1.5838e-05,2.276e-05,1.7004e-05,2.118e-05,1.9402e-05,3.118e-05,2.424e-05,2.344e-05,2.454e-05,2.526e-05,4.694e-05,4.392e-05,4.216e-05,3.898e-05,4.966e-05,2.728e-05,6.096e-05,3.778e-05,5.582e-05,2.426e-05
744,3.07e-05,2.106e-05,1.3794e-05,2.212e-05,7.936e-06,3.896e-05,3.032e-05,2.572e-05,2.916e-05,1.4026e-05,5.34e-05,5.87e-05,5.24e-05,4.846e-05,4.326e-05,5.544e-05,5.158e-05,4.924e-05,4.674e-05,4.508e-05,1.3912e-05,2.19e-05,1.473e-05,1.9342e-05,1.3054e-05,3.086e-05,2e-05,1.9518e-05,2.234e-05,2.49e-05,4.04e-05,3.824e-05,3.008e-05,3.036e-05,3.404e-05,1.1998e-05,5.79e-05,3.346e-05,5.196e-05,2.018e-05
746,2.1e-05,1.7128e-05,1.731e-05,2.742e-05,6.658e-06,3.612e-05,2.068e-05,2.162e-05,2.788e-05,1.5932e-05,5.32e-05,5.496e-05,4.584e-05,4.138e-05,3.734e-05,5.072e-05,5.068e-05,4.328e-05,4.65e-05,4.504e-05,1.0956e-05,2.07e-05,1.3196e-05,1.8674e-05,1.444e-05,2.632e-05,1.7854e-05,1.6704e-05,1.8528e-05,2.172e-05,3.088e-05,3.512e-05,2.318e-05,3.28e-05,2.974e-05,1.0942e-05,4.42e-05,2.61e-05,4.774e-05,4.128e-06
748,1.308e-05,9.496e-06,1.58e-05,2.058e-05,2.028e-06,3.318e-05,2.162e-05,1.7514e-05,2.368e-05,1.2282e-05,4.778e-05,5.478e-05,4.042e-05,3.836e-05,4.196e-05,5.046e-05,4.772e-05,4.14e-05,4.666e-05,4.094e-05,7.866e-06,1.869e-05,1.0004e-05,1.6168e-05,1.207e-05,2.61e-05,1.8254e-05,1.8858e-05,1.9054e-05,1.922e-05,3.452e-05,2.504e-05,2.418e-05,3.432e-05,4.072e-05,9.358e-06,4.078e-05,3.154e-05,3.916e-05,1.648e-05
750,2.214e-05,9.418e-06,1.88e-05,1.4182e-05,3.99e-06,3.09e-05,1.9896e-05,3.198e-05,2.298e-05,1.0876e-05,4.57e-05,5.592e-05,4.364e-05,4.132e-05,4.548e-05,5.168e-05,4.998e-05,4.312e-05,4.854e-05,3.584e-05,3.59e-06,1.7348e-05,1.0062e-05,1.4602e-05,8.35e-06,2.524e-05,1.564e-05,1.9952e-05,1.77e-05,1.978e-05,2.464e-05,2.416e-05,2.416e-05,3.012e-05,4.382e-05,7.63e-06,4.816e-05,3.124e-05,4.822e-05,6.01e-06
752,1.7252e-05,2.304e-05,2.284e-05,1.9622e-05,3.044e-06,3.388e-05,1.095e-05,2.268e-05,2.698e-05,8.304e-06,4.718e-05,5.596e-05,4.348e-05,4.026e-05,4.362e-05,5.092e-05,6.02e-05,4.782e-05,4.86e-05,3.27e-05,6.01e-06,1.7762e-05,8.332e-06,1.407e-05,9.334e-06,2.5e-05,1.7998e-05,1.9864e-05,1.3254e-05,1.8778e-05,3.356e-05,3.948e-05,1.676e-05,3.538e-05,2.718e-05,1.2212e-05,3.908e-05,2.948e-05,4.048e-05,1.2534e-05
754,1.3442e-05,1.2306e-05,3.538e-05,1.4346e-05,1.3094e-06,2.684e-05,3.518e-06,2.978e-05,1.9238e-05,8.516e-06,4.686e-05,5.152e-05,4.744e-05,4.44e-05,4.004e-05,5.13e-05,4.686e-05,4.58e-05,4.46e-05,4.008e-05,4.176e-06,2.108e-05,1.2672e-05,1.551e-05,1.259e-05,2.848e-05,1.8972e-05,1.8118e-05,1.9166e-05,2.342e-05,2.98e-05,3.776e-05,1.8374e-05,3.616e-05,3.21e-05,1.381e-05,4.15e-05,4.356e-05,3.746e-05,5.37e-06
756,1.0484e-05,7.382e-06,3.346e-05,1.4554e-05,2.57e-06,3.002e-05,2.544e-06,2.492e-05,1.7294e-05,1.3996e-05,4.204e-05,4.906e-05,4.982e-05,4.942e-05,4.704e-05,5.814e-05,4.468e-05,4.122e-05,5.074e-05,3.248e-05,4.492e-06,2.108e-05,1.2644e-05,1.6098e-05,1.2052e-05,2.988e-05,2.018e-05,1.991e-05,1.8544e-05,2.034e-05,2.28e-05,3.11e-05,1.2248e-05,3.774e-05,3.306e-05,1.8342e-05,3.47e-05,4.834e-05,3.614e-05,1.715e-06
758,6.804e-06,7.958e-06,2.888e-05,3.138e-05,0,2.244e-05,0,2.58e-05,2.58e-05,1.2926e-05,4.582e-05,4.626e-05,5.198e-05,5.302e-05,4.536e-05,5.546e-05,4.308e-05,4.312e-05,5.498e-05,2.426e-05,2.23e-06,2.082e-05,1.0864e-05,1.3742e-05,1.4008e-05,2.892e-05,1.9422e-05,2.096e-05,1.9504e-05,2.282e-05,1.9306e-05,3.084e-05,1.2184e-05,4.71e-05,3.948e-05,2.118e-05,3.948e-05,4.728e-05,3.03e-05,1.822e-05
760,4.094e-06,1.9484e-06,3.566e-05,1.1992e-05,4.148e-07,2.828e-05,1.5236e-06,2.35e-05,2.584e-05,1.1726e-05,4.384e-05,4.738e-05,4.866e-05,4.934e-05,4.804e-05,5.568e-05,4.92e-05,5.34e-05,5.514e-05,2.948e-05,2.988e-06,1.941e-05,1.2336e-05,1.217e-05,8.036e-06,3.256e-05,1.9604e-05,2.192e-05,1.7858e-05,2.082e-05,3.642e-05,4.006e-05,8.036e-06,5.702e-05,3.174e-05,3.334e-05,5.338e-05,5.142e-05,1.8912e-05,2.056e-05
762,1.0796e-05,1.3172e-05,2.716e-05,1.2226e-05,5.612e-06,2.23e-05,1.388e-06,2.6e-05,1.6716e-05,1.7652e-05,3.718e-05,4.556e-05,4.378e-05,4.72e-05,4.522e-05,4.818e-05,4.04e-05,6.188e-05,5.902e-05,3.658e-05,3.134e-06,2.038e-05,1.6434e-05,1.4524e-05,9.044e-06,2.658e-05,2.14e-05,2.5e-05,2.144e-05,2.254e-05,5.15e-05,4.928e-05,2.262e-05,5.496e-05,3.262e-05,3.164e-05,4.55e-05,4.918e-05,2.278e-05,3.66e-05
764,1.1908e-05,1.113e-05,2.934e-05,1.1932e-05,0,1.723e-05,0,2.808e-05,2.098e-05,1.1198e-05,3.662e-05,4.38e-05,4.72e-05,4.436e-05,5.6e-05,5.724e-05,3.66e-05,5.246e-05,5.856e-05,3.85e-05,4.438e-06,2.06e-05,1.8268e-05,1.6796e-05,1.2504e-05,2.7e-05,2.1e-05,2.754e-05,2.29e-05,2.194e-05,5.428e-05,4.86e-05,3.368e-05,5.492e-05,3.156e-05,5.136e-05,4.36e-05,6.938e-05,2.97e-05,3.6e-05
766,1.6062e-05,6.926e-06,3.392e-05,2.278e-05,0,1.2828e-05,1.316e-06,2.532e-05,9.402e-06,1.5332e-05,4.046e-05,4.09e-05,6.364e-05,4.474e-05,5.884e-05,5.016e-05,4.042e-05,4.28e-05,5.436e-05,3.3e-05,8.218e-06,2.246e-05,1.921e-05,1.6232e-05,1.2306e-05,2.9e-05,2.37e-05,2.71e-05,2.37e-05,2.068e-05,4.634e-05,4.446e-05,3.052e-05,6.022e-05,4.002e-05,5.22e-05,3.914e-05,7.034e-05,3.274e-05,7.228e-05
768,1.808e-05,8.08e-06,3.182e-05,1.3264e-05,6.958e-06,2.852e-05,3.4e-07,1.002e-05,1.6116e-05,2.166e-05,3.532e-05,4.174e-05,4.858e-05,4.748e-05,6.014e-05,5.072e-05,3.644e-05,3.534e-05,6.662e-05,2.86e-05,1.006e-05,2.532e-05,1.7584e-05,1.9774e-05,1.451e-05,2.812e-05,2.316e-05,2.572e-05,2.206e-05,2.784e-05,5.458e-05,4.586e-05,4.6e-05,7.272e-05,4.294e-05,5.354e-05,4.144e-05,6.952e-05,2.27e-05,7.602e-05
770,8.076e-06,2.286e-06,2.734e-05,2.224e-05,1.0702e-06,1.062e-05,2.118e-06,2.948e-05,1.8048e-05,2.724e-05,3.896e-05,2.168e-05,5.078e-05,4.142e-05,5.908e-05,5.49e-05,3.446e-05,4.654e-05,6.122e-05,3.268e-05,1.3666e-05,2.444e-05,1.8446e-05,1.8792e-05,1.8092e-05,2.784e-05,2.868e-05,2.984e-05,2.652e-05,2.522e-05,5.618e-05,4.53e-05,3.804e-05,7.364e-05,3.328e-05,5.624e-05,6.234e-05,6.43e-05,2.386e-05,8.68e-05
772,3.768e-06,4.472e-06,4.214e-05,2.992e-05,9.968e-06,1.2508e-05,6.418e-06,2.37e-05,1.5888e-05,2.136e-05,3.61e-05,2.74e-05,5.93e-05,3.84e-05,5.45e-05,5.606e-05,3.182e-05,4.622e-05,5.738e-05,3.968e-05,1.1918e-05,2.4e-05,2.3e-05,1.4636e-05,1.9318e-05,2.664e-05,3.11e-05,3.076e-05,3.136e-05,2.57e-05,5.7e-05,5.716e-05,2.782e-05,6.988e-05,4.078e-05,8.39e-05,6.034e-05,7.838e-05,3.746e-05,9.532e-05
774,2.526e-06,5.986e-06,4.234e-05,3.132e-05,1.6062e-05,1.6892e-05,9.258e-07,2.336e-05,1.4026e-05,2.088e-05,2.514e-05,2.342e-05,4.694e-05,3.926e-05,6.31e-05,5.55e-05,2.346e-05,4.59e-05,6.87e-05,3.356e-05,1.1848e-05,1.898e-05,1.7804e-05,1.66e-05,2.026e-05,2.494e-05,3.056e-05,2.986e-05,3.338e-05,2.436e-05,7.354e-05,4.77e-05,4.498e-05,8.514e-05,4.734e-05,8.86e-05,6.814e-05,6.74e-05,2.382e-05,0.00013452
776,2.242e-05,2.066e-05,3.018e-05,3.406e-05,2.894e-05,1.5426e-05,2.548e-07,2.806e-05,1.366e-05,3.858e-05,2.912e-05,2.17e-05,4.99e-05,5.642e-05,5.776e-05,4.584e-05,2.67e-05,3.98e-05,6.782e-05,3.506e-05,1.5748e-05,1.9384e-05,1.9672e-05,1.9514e-05,1.4436e-05,2.838e-05,3.414e-05,3.138e-05,3.354e-05,2.364e-05,7.588e-05,4.874e-05,5.48e-05,8.084e-05,4.942e-05,9.076e-05,7.36e-05,6.586e-05,2.738e-05,0.00013806
778,2.23e-05,2.386e-05,5.228e-05,2.708e-05,3.168e-05,2.978e-05,8.686e-06,3.162e-05,1.4874e-05,4.778e-05,1.7764e-05,1.0954e-05,4.214e-05,4.714e-05,5.572e-05,4.598e-05,3.5e-05,2.528e-05,6.882e-05,4.488e-05,1.9472e-05,1.7022e-05,2.136e-05,1.7472e-05,1.7878e-05,1.9904e-05,3.29e-05,3.434e-05,3.47e-05,2.618e-05,9.05e-05,5.232e-05,5.43e-05,8.36e-05,5.272e-05,0.00010804,6.694e-05,6.244e-05,3.276e-05,0.00016318
780,1.9474e-05,2.606e-05,5.178e-05,2.14e-05,4.906e-05,1.3956e-05,7.442e-06,3.022e-05,1.2546e-05,3.63e-05,2.48e-05,1.4478e-05,5.112e-05,4.846e-05,6.142e-05,5.144e-05,1.4946e-05,3.634e-05,6.198e-05,3.962e-05,2.022e-05,1.521e-05,2.054e-05,1.3906e-05,2.412e-05,2.686e-05,2.984e-05,3.458e-05,3.09e-05,2.988e-05,7.19e-05,5.032e-05,6.08e-05,7.924e-05,3.744e-05,0.00012046,5.914e-05,7.646e-05,5.806e-05,0.00019072
