Wavelength [nm],Background (Mel),Modulation (Mel),Background (LMS),Modulation (LMS)380,9.612e-06,1.072e-05,1.1448e-05,9.56e-06,1.0396e-05,7.438e-06,1.0684e-05,6.094e-06,1.3808e-05,1.494e-05,1.2904e-05,1.7506e-05,3.702e-06,1.4294e-05,1.267e-05,9.582e-06,5.31e-06,6.212e-06,1.1434e-05,1.117e-05,7.108e-06,5.332e-06,2.482e-06,4.748e-06,8.22e-06,6.842e-06,4.082e-06,5.71e-06,6.054e-06,5.032e-06,2.24e-05,1.5382e-05,1.608e-05,1.3848e-05,1.7516e-05,1.4478e-05,1.7718e-05,3.108e-05,3.09e-05,8.968e-06
382,7.72e-06,6.412e-06,1.505e-05,7.198e-06,1.243e-05,8.836e-06,1.2166e-05,2.564e-06,1.5496e-05,9.552e-06,1.236e-05,1.2954e-05,8.306e-06,1.3548e-05,1.1274e-05,1.1966e-05,7.12e-06,4.944e-06,1.1272e-05,1.1472e-05,6.388e-06,5.706e-06,2.726e-06,6.046e-06,8.39e-06,6.43e-06,3.612e-06,6.134e-06,4.352e-06,5.612e-06,1.871e-05,1.178e-05,1.49e-05,9.7e-06,1.767e-05,1.407e-05,2.22e-05,2.9e-05,3.356e-05,1.5598e-05
384,4.158e-06,7.592e-06,1.3734e-05,7.294e-06,7.082e-06,3.65e-06,8.812e-06,6.93e-06,1.2302e-05,4.468e-06,9.56e-06,1.2416e-05,6.22e-06,1.2516e-05,1.0926e-05,1.4204e-05,1.0082e-05,6.32e-06,6.06e-06,1.3718e-05,6.774e-06,5.962e-06,3.31e-06,3.646e-06,8.88e-06,7.65e-06,3.054e-06,4.676e-06,4.852e-06,4.736e-06,1.8402e-05,1.0158e-05,1.977e-05,8.398e-06,1.653e-05,1.0772e-05,2.018e-05,3.102e-05,2.718e-05,1.7284e-05
386,7.4e-06,8.498e-06,1.0842e-05,6.936e-06,7.058e-06,4.9e-06,1.0706e-05,4.9e-06,1.2308e-05,2.636e-06,1.0998e-05,1.347e-05,8.138e-06,1.0998e-05,1.0962e-05,1.277e-05,9.854e-06,6.994e-06,8.894e-06,9.946e-06,5.442e-06,5.284e-06,2.804e-06,3.306e-06,6.682e-06,7.334e-06,2.168e-06,5.748e-06,4.32e-06,3.792e-06,1.6098e-05,1.3092e-05,1.542e-05,1.4806e-05,1.209e-05,1.6894e-05,1.8792e-05,3.382e-05,2.718e-05,1.5376e-05
388,7.396e-06,7.392e-06,9.996e-06,1.034e-05,8.138e-06,4.702e-06,7.602e-06,5.062e-06,9.056e-06,7.758e-06,1.228e-05,1.4246e-05,6.706e-06,1.1168e-05,1.1176e-05,1.5916e-05,1.0886e-05,6.98e-06,8.11e-06,9.778e-06,6.854e-06,4.45e-06,2.288e-06,4.094e-06,5.77e-06,7.578e-06,2.212e-06,4.55e-06,4.548e-06,2.582e-06,1.4184e-05,9.786e-06,1.6632e-05,1.371e-05,1.2218e-05,1.58e-05,1.7252e-05,3.02e-05,3.018e-05,8.632e-06
390,5.218e-06,3.73e-06,8.762e-06,9.266e-06,6.104e-06,4.984e-06,8.576e-06,3.094e-06,1.161e-05,6.072e-06,1.2284e-05,1.4412e-05,7.386e-06,1.1424e-05,1.011e-05,1.1686e-05,1.1974e-05,8.032e-06,4.708e-06,1.102e-05,5.084e-06,4.55e-06,2.09e-06,3.85e-06,5.67e-06,7.286e-06,1.6822e-06,2.838e-06,3.47e-06,2.618e-06,1.4236e-05,1.1976e-05,1.4988e-05,1.0384e-05,9.544e-06,1.4874e-05,1.1268e-05,2.512e-05,2.578e-05,1.369e-05
392,6.804e-06,6.012e-06,3.792e-06,8.106e-06,4.136e-06,7.852e-06,7.208e-06,2.386e-06,1.2562e-05,5.272e-06,1.1478e-05,1.1754e-05,8.802e-06,1.3022e-05,1.118e-05,1.1502e-05,9.7e-06,7.644e-06,4.134e-06,1.3322e-05,2.692e-06,4.776e-06,2.97e-06,4.546e-06,6.068e-06,5.586e-06,8.382e-07,5.006e-06,2.148e-06,3.846e-06,1.651e-05,1.5158e-05,1.9212e-05,1.1406e-05,1.0358e-05,1.509e-05,9.84e-06,2.728e-05,2.096e-05,1.3726e-05
394,3.574e-06,5.3e-06,5.988e-06,1.5202e-05,6.91e-06,2.598e-06,1.0032e-05,4.396e-06,1.15e-05,2.652e-06,1.0186e-05,1.0012e-05,6.704e-06,1.184e-05,1.236e-05,1.297e-05,1.0184e-05,9.052e-06,8.094e-06,1.2274e-05,2.624e-06,4.536e-06,2.774e-06,3.748e-06,6.11e-06,7.382e-06,1.8378e-06,5.21e-06,3.752e-06,1.84e-06,1.586e-05,1.4792e-05,1.571e-05,1.1132e-05,1.418e-05,1.5222e-05,1.4324e-05,2.836e-05,2.566e-05,1.015e-05
396,3.122e-06,3.74e-06,6.592e-06,7.778e-06,6.034e-06,5e-06,7.556e-06,3.508e-06,1.1048e-05,3.838e-06,1.2148e-05,9.604e-06,6.35e-06,1.0646e-05,8.842e-06,1.1746e-05,1.365e-05,1.0682e-05,5.508e-06,1.0792e-05,2.438e-06,5.128e-06,2.438e-06,3.88e-06,4.126e-06,6.752e-06,1.9558e-06,3.84e-06,3.146e-06,2.16e-07,1.6676e-05,1.248e-05,1.7622e-05,7.816e-06,1.1008e-05,1.637e-05,1.2412e-05,2.534e-05,2.87e-05,8.728e-06
398,8.884e-07,8.734e-06,4.19e-06,6.26e-06,3.858e-06,3.992e-06,9.378e-06,5.584e-06,8.746e-06,3.14e-06,1.2834e-05,8.79e-06,1.059e-05,9.766e-06,8.79e-06,1.1888e-05,8.722e-06,1.2376e-05,2.472e-06,1.1468e-05,3.132e-06,3.85e-06,2.372e-06,3.618e-06,4.896e-06,5.504e-06,1.3696e-06,3.4e-06,2.69e-06,2.252e-06,1.366e-05,1.2298e-05,1.8552e-05,1.4222e-05,1.2244e-05,1.6076e-05,1.354e-05,2.428e-05,1.902e-05,2.064e-05
400,5.152e-06,7.106e-06,3.198e-06,8.262e-06,2.222e-06,2.522e-06,8.694e-06,5.39e-06,8.26e-06,5.774e-06,9.4e-06,8.458e-06,1.1346e-05,8.458e-06,8.728e-06,1.2352e-05,1.1144e-05,1.1344e-05,6.512e-06,1.054e-05,4.626e-06,3.094e-06,1.1856e-06,4.596e-06,3.094e-06,5.522e-06,2.392e-06,2.866e-06,2.924e-06,1.6542e-06,9.292e-06,1.517e-05,1.9876e-05,8.468e-06,1.0468e-05,1.853e-05,1.3926e-05,2.36e-05,2.314e-05,1.761e-05
402,5.624e-06,2.156e-06,5.506e-06,9.814e-06,5.504e-06,4.1e-06,7.846e-06,6.442e-06,8.08e-06,4.066e-06,1.0218e-05,8.32e-06,9.224e-06,7.87e-06,9.586e-06,1.2752e-05,1.2842e-05,7.686e-06,6.242e-06,1.1212e-05,3.192e-06,2.882e-06,2.298e-06,3.816e-06,3.116e-06,5.452e-06,2.786e-06,2.348e-06,2.626e-06,1.1136e-06,1.0774e-05,1.1726e-05,1.8694e-05,1.0298e-05,1.1562e-05,1.2712e-05,1.3022e-05,2.388e-05,1.7518e-05,1.628e-05
404,4.878e-06,6.384e-06,8.728e-06,1.2138e-05,3.13e-06,5.992e-06,7.668e-06,5.048e-06,6.486e-06,3.534e-06,9.186e-06,8.96e-06,1.0772e-05,8.894e-06,8.682e-06,1.1286e-05,1.1974e-05,7.864e-06,7.176e-06,1.1154e-05,2.356e-06,3.216e-06,1.6844e-06,3.004e-06,2.908e-06,4.388e-06,3.424e-06,2.594e-06,3.472e-06,8.782e-07,1.2618e-05,1.3728e-05,1.7896e-05,1.1436e-05,1.0766e-05,1.3164e-05,1.2756e-05,2.008e-05,1.6448e-05,1.756e-05
406,5.296e-06,6.178e-06,8.462e-06,1.013e-05,6.16e-07,6.246e-06,5.962e-06,4.496e-06,3.584e-06,4.508e-06,1.046e-05,9.51e-06,1.1702e-05,8.204e-06,9.794e-06,1.1896e-05,9.866e-06,9.84e-06,8.16e-06,1.0972e-05,2.99e-06,2.772e-06,7.628e-07,2.896e-06,2.714e-06,3.78e-06,3.104e-06,2.006e-06,3.416e-06,1.061e-06,1.1586e-05,1.3908e-05,1.871e-05,1.17e-05,1.5302e-05,1.4676e-05,1.5052e-05,2.176e-05,1.6758e-05,1.5208e-05
408,2.668e-06,3.724e-06,7.298e-06,1.008e-05,2.378e-06,5.584e-06,3.38e-06,6.616e-06,4.018e-06,5.302e-06,1.1928e-05,7.43e-06,1.0132e-05,6.028e-06,1.0832e-05,1.0742e-05,1.0024e-05,1.103e-05,1.0624e-05,9.73e-06,2.852e-06,3.234e-06,1.8932e-06,2.764e-06,1.9464e-06,4.446e-06,3.882e-06,2.116e-06,2.342e-06,6.19e-07,1.0542e-05,1.2482e-05,1.8628e-05,1.1948e-05,1.4066e-05,1.6324e-05,1.5132e-05,2.254e-05,1.856e-05,1.6324e-05
410,3.726e-06,9.652e-06,8.892e-06,8.87e-06,7.014e-06,6.776e-06,5.574e-06,9.562e-06,1.2232e-05,6.924e-06,9.276e-06,6.878e-06,1.195e-05,6.334e-06,9.398e-06,7.964e-06,8.348e-06,1.078e-05,6.46e-06,1.3226e-05,4.226e-06,3.338e-06,2.464e-06,3.224e-06,2.23e-06,4.046e-06,3.458e-06,2.934e-06,2.764e-06,1.3852e-06,8.37e-06,1.4958e-05,1.6372e-05,1.263e-05,1.8052e-05,1.9348e-05,1.7938e-05,1.9982e-05,1.7912e-05,2.048e-05
412,1.0144e-05,9.804e-06,8.584e-06,1.1184e-05,8.694e-06,5.984e-06,1.0156e-05,6.738e-06,6.81e-06,7.26e-06,1.2196e-05,1.001e-05,1.32e-05,6.944e-06,9.226e-06,9.626e-06,9.058e-06,1.1158e-05,9.266e-06,9.78e-06,3.008e-06,1.2056e-06,3.216e-06,3.296e-06,2.828e-06,3.54e-06,2.338e-06,2.098e-06,4.086e-06,1.6424e-06,1.6944e-05,2.42e-05,1.9168e-05,1.855e-05,2.18e-05,1.9154e-05,1.8998e-05,2.284e-05,2.078e-05,2.324e-05
414,1.7414e-05,1.3278e-05,1.3906e-05,1.9136e-05,1.5594e-05,1.4386e-05,1.3996e-05,1.701e-05,1.322e-05,1.4304e-05,1.3834e-05,8.956e-06,1.3634e-05,1.0332e-05,1.0582e-05,1.1106e-05,1.1732e-05,1.2708e-05,1.1106e-05,1.1532e-05,2.876e-06,3.274e-06,3.706e-06,2.952e-06,2.746e-06,3.63e-06,4.556e-06,2.246e-06,3.5e-06,7.598e-07,2.392e-05,2.792e-05,3.194e-05,2.34e-05,3.108e-05,2.54e-05,2.792e-05,2.822e-05,3.04e-05,3.144e-05
416,3.68e-05,3.502e-05,3.34e-05,3.976e-05,3.68e-05,3.268e-05,3.08e-05,3.37e-05,3.052e-05,3.458e-05,1.8096e-05,1.4186e-05,1.8878e-05,1.508e-05,1.7314e-05,1.5192e-05,1.564e-05,1.6644e-05,1.497e-05,1.6198e-05,3.512e-06,3.706e-06,4.088e-06,3.27e-06,2.598e-06,2.55e-06,5.36e-06,3.834e-06,4.424e-06,2.556e-06,5.048e-05,5.89e-05,5.4e-05,5.458e-05,5.83e-05,5.284e-05,5.17e-05,5.362e-05,5.438e-05,5.592e-05
418,8.228e-05,7.95e-05,7.854e-05,8.188e-05,8.074e-05,7.58e-05,7.54e-05,7.774e-05,7.206e-05,7.644e-05,3.046e-05,2.534e-05,3.164e-05,2.632e-05,2.882e-05,2.66e-05,2.652e-05,2.74e-05,2.638e-05,2.748e-05,4.37e-06,3.414e-06,5.472e-06,4.938e-06,3.284e-06,3.386e-06,5.224e-06,4.826e-06,5.11e-06,4.16e-06,0.00011188,0.00012106,0.00011424,0.00011404,0.0001161,0.0001086,0.00011066,0.00010956,0.0001064,0.00011612
420,0.00015244,0.00014774,0.00014856,0.00015162,0.00014892,0.0001427,0.0001411,0.00014534,0.00013972,0.00014452,4.968e-05,4.37e-05,5.03e-05,4.382e-05,4.798e-05,4.436e-05,4.502e-05,4.556e-05,4.502e-05,4.472e-05,6.386e-06,4.786e-06,6.178e-06,6.634e-06,4.938e-06,5.358e-06,7.092e-06,5.632e-06,5.904e-06,4.93e-06,0.0002102,0.0002138,0.0002134,0.0002118,0.0002112,0.0002018,0.0002042,0.000204,0.0002024,0.0002094
422,0.0002362,0.0002312,0.0002322,0.0002364,0.0002354,0.0002272,0.000224,0.0002282,0.000225,0.0002268,7.274e-05,6.4e-05,7.334e-05,6.654e-05,7.07e-05,6.586e-05,6.682e-05,6.792e-05,6.676e-05,6.624e-05,7.648e-06,6.872e-06,8.426e-06,8.486e-06,6.832e-06,7.112e-06,9.256e-06,6.922e-06,7.73e-06,8.252e-06,0.0003456,0.0003484,0.0003478,0.0003482,0.0003496,0.0003338,0.000337,0.000333,0.0003374,0.0003404
424,0.0003228,0.0003158,0.0003158,0.00032,0.0003184,0.0003094,0.0003068,0.0003094,0.0003056,0.0003122,9.26e-05,8.914e-05,9.504e-05,8.764e-05,9.094e-05,8.778e-05,8.952e-05,8.928e-05,8.746e-05,8.852e-05,9.398e-06,9.352e-06,1.1068e-05,1.0014e-05,9.654e-06,9.754e-06,1.1304e-05,1.0434e-05,1.0524e-05,1.1128e-05,0.0005182,0.0005222,0.0005192,0.0005204,0.0005188,0.0005016,0.0005074,0.0005002,0.000505,0.0005092
426,0.000401,0.0003958,0.0003994,0.0004014,0.0003988,0.0003882,0.0003868,0.0003884,0.0003844,0.0003884,0.00011532,0.00011228,0.00011546,0.00011082,0.00011404,0.00010936,0.00010962,0.00011126,0.00010948,0.00010902,1.3444e-05,1.283e-05,1.3982e-05,1.3204e-05,1.3388e-05,1.3148e-05,1.4488e-05,1.325e-05,1.4136e-05,1.4912e-05,0.0007342,0.0007364,0.0007392,0.0007388,0.0007356,0.0007156,0.0007184,0.000713,0.000715,0.0007234
428,0.0004716,0.0004678,0.0004696,0.0004698,0.0004684,0.0004608,0.0004586,0.0004614,0.0004568,0.0004628,0.00013378,0.0001298,0.00013708,0.00013296,0.00013422,0.00012854,0.00013092,0.00013002,0.0001314,0.00013034,1.8602e-05,1.7342e-05,1.8862e-05,1.7784e-05,1.7518e-05,1.6664e-05,1.9156e-05,1.6892e-05,1.73e-05,1.7248e-05,0.0009758,0.000978,0.000973,0.000979,0.0009772,0.0009562,0.000953,0.0009536,0.0009552,0.0009574
430,0.0005242,0.0005192,0.0005204,0.0005178,0.0005218,0.0005118,0.0005116,0.0005138,0.0005094,0.0005144,0.00015136,0.00014692,0.00015262,0.00014802,0.0001492,0.00014544,0.00014746,0.00014662,0.00014794,0.00014682,2.146e-05,2.168e-05,2.288e-05,2.242e-05,2.226e-05,2.062e-05,2.318e-05,2.124e-05,2.116e-05,2.192e-05,0.00118,0.001182,0.0011798,0.0011852,0.001183,0.0011566,0.0011576,0.001157,0.0011588,0.0011638
432,0.0005338,0.0005314,0.000531,0.0005292,0.000533,0.0005242,0.0005242,0.0005274,0.0005216,0.0005262,0.00015544,0.00015258,0.00015754,0.0001528,0.00015506,0.0001507,0.00015226,0.00015168,0.00015296,0.00015222,2.558e-05,2.498e-05,2.63e-05,2.63e-05,2.526e-05,2.404e-05,2.68e-05,2.448e-05,2.542e-05,2.59e-05,0.0013022,0.001303,0.001303,0.0013062,0.0013054,0.0012816,0.0012826,0.0012844,0.0012864,0.0012906
434,0.0004796,0.000477,0.0004762,0.0004772,0.0004802,0.0004756,0.000475,0.000478,0.0004728,0.000479,0.0001448,0.00014014,0.0001458,0.00014144,0.00014328,0.00014016,0.00014154,0.0001398,0.00014206,0.00014126,2.858e-05,2.762e-05,2.894e-05,2.9e-05,2.772e-05,2.752e-05,2.978e-05,2.758e-05,2.88e-05,2.896e-05,0.0013124,0.001316,0.001314,0.0013168,0.001317,0.0012996,0.001297,0.0013016,0.0013014,0.001305
436,0.0003604,0.0003592,0.000359,0.0003582,0.000364,0.0003624,0.0003622,0.0003634,0.00036,0.000366,0.0001171,0.00011266,0.00011684,0.00011398,0.00011342,0.0001134,0.00011372,0.00011234,0.00011462,0.00011414,3.064e-05,2.996e-05,3.144e-05,3.148e-05,3.06e-05,2.934e-05,3.164e-05,2.976e-05,3.134e-05,3.08e-05,0.001222,0.0012232,0.0012214,0.0012232,0.0012248,0.0012132,0.0012104,0.0012146,0.0012142,0.0012186
438,0.0002208,0.000221,0.00022,0.0002186,0.0002222,0.000224,0.0002236,0.000226,0.0002242,0.0002258,8.084e-05,7.896e-05,8.192e-05,8.05e-05,7.906e-05,7.974e-05,8.102e-05,7.848e-05,8.086e-05,7.934e-05,3.284e-05,3.19e-05,3.276e-05,3.252e-05,3.188e-05,3.05e-05,3.324e-05,3.146e-05,3.29e-05,3.272e-05,0.0010618,0.0010638,0.0010598,0.0010646,0.0010626,0.0010616,0.0010586,0.0010608,0.00106,0.0010642
440,0.00011324,0.00011044,0.00011142,0.00011262,0.00011476,0.0001164,0.00011664,0.00011906,0.00011364,0.0001179,5.632e-05,5.338e-05,5.662e-05,5.526e-05,5.606e-05,5.384e-05,5.758e-05,5.218e-05,5.736e-05,5.522e-05,3.402e-05,3.278e-05,3.454e-05,3.406e-05,3.378e-05,3.266e-05,3.516e-05,3.342e-05,3.384e-05,3.394e-05,0.000849,0.0008506,0.000848,0.0008512,0.0008532,0.000854,0.0008536,0.0008534,0.0008556,0.0008534
442,6.314e-05,6.172e-05,6.124e-05,5.94e-05,6.6e-05,6.296e-05,6.358e-05,6.286e-05,6.034e-05,6.54e-05,4.72e-05,4.496e-05,4.598e-05,4.614e-05,4.32e-05,4.438e-05,4.5e-05,4.206e-05,4.586e-05,4.418e-05,3.528e-05,3.342e-05,3.508e-05,3.51e-05,3.43e-05,3.332e-05,3.53e-05,3.464e-05,3.518e-05,3.552e-05,0.0005898,0.000593,0.000586,0.0005902,0.0005922,0.000597,0.000597,0.000597,0.000597,0.0005996
444,5.356e-05,5.338e-05,5.264e-05,5.07e-05,5.59e-05,5.256e-05,5.274e-05,5.366e-05,5.072e-05,5.344e-05,4.686e-05,4.51e-05,4.646e-05,4.608e-05,4.508e-05,4.446e-05,4.508e-05,4.234e-05,4.62e-05,4.612e-05,3.632e-05,3.484e-05,3.664e-05,3.6e-05,3.612e-05,3.436e-05,3.652e-05,3.598e-05,3.606e-05,3.668e-05,0.0003584,0.0003606,0.0003584,0.0003606,0.0003644,0.000367,0.0003668,0.0003678,0.000368,0.0003718
446,5.48e-05,5.548e-05,5.216e-05,5.076e-05,5.614e-05,5.28e-05,5.188e-05,5.446e-05,5.108e-05,5.392e-05,4.74e-05,4.874e-05,4.934e-05,4.97e-05,4.822e-05,4.896e-05,4.764e-05,4.366e-05,4.818e-05,4.826e-05,3.862e-05,3.688e-05,3.86e-05,3.87e-05,3.808e-05,3.664e-05,3.922e-05,3.778e-05,3.804e-05,3.888e-05,0.00019884,0.00019766,0.00019634,0.00019888,0.0002008,0.000203,0.0002018,0.000202,0.0002042,0.0002058
448,5.694e-05,5.778e-05,5.632e-05,5.474e-05,5.962e-05,5.702e-05,5.626e-05,5.704e-05,5.58e-05,5.918e-05,5.312e-05,5.246e-05,5.248e-05,5.516e-05,5.172e-05,5.236e-05,5.106e-05,4.824e-05,5.258e-05,5.114e-05,4.176e-05,4.044e-05,4.242e-05,4.186e-05,4.216e-05,4.064e-05,4.254e-05,4.114e-05,4.166e-05,4.202e-05,0.00012768,0.00012422,0.00012316,0.000126,0.00012786,0.00012604,0.0001242,0.00012376,0.00012696,0.0001268
450,6.324e-05,6.156e-05,6.26e-05,5.934e-05,6.472e-05,6.148e-05,6.21e-05,6.282e-05,6.22e-05,6.22e-05,5.888e-05,5.872e-05,5.688e-05,6.024e-05,5.672e-05,5.624e-05,5.656e-05,5.44e-05,5.736e-05,5.6e-05,4.572e-05,4.524e-05,4.668e-05,4.692e-05,4.778e-05,4.538e-05,4.738e-05,4.654e-05,4.64e-05,4.68e-05,0.00010822,0.0001096,0.00010528,0.00010626,0.000111,0.00010822,0.00010536,0.00010562,0.0001089,0.00010876
452,6.674e-05,6.684e-05,6.59e-05,6.524e-05,6.746e-05,6.426e-05,6.6e-05,6.658e-05,6.408e-05,6.438e-05,6.274e-05,6.32e-05,6.22e-05,6.424e-05,6.134e-05,6.124e-05,5.958e-05,5.932e-05,6.12e-05,6.286e-05,5.11e-05,4.982e-05,5.036e-05,5.08e-05,5.118e-05,4.856e-05,5.122e-05,5.074e-05,4.998e-05,5.084e-05,0.000109,0.00010596,0.00010404,0.00010656,0.00011022,0.00010648,0.00010742,0.00010432,0.00010804,0.00010698
454,6.694e-05,6.8e-05,6.674e-05,6.51e-05,6.858e-05,6.522e-05,6.948e-05,6.816e-05,6.56e-05,6.748e-05,6.306e-05,6.55e-05,6.226e-05,6.482e-05,6.228e-05,6.398e-05,6.316e-05,6.048e-05,6.356e-05,6.354e-05,5.354e-05,5.182e-05,5.302e-05,5.306e-05,5.31e-05,5.178e-05,5.332e-05,5.36e-05,5.326e-05,5.344e-05,0.00010734,0.00010656,0.0001018,0.00010476,0.00011122,0.00010278,0.00010468,0.00010356,0.00010654,0.00010278
456,6.692e-05,6.886e-05,6.924e-05,6.488e-05,7.006e-05,6.694e-05,7.144e-05,6.644e-05,6.98e-05,6.98e-05,6.694e-05,6.876e-05,6.454e-05,7.004e-05,6.668e-05,6.648e-05,6.646e-05,6.35e-05,6.674e-05,6.704e-05,5.586e-05,5.5e-05,5.638e-05,5.69e-05,5.662e-05,5.478e-05,5.57e-05,5.67e-05,5.668e-05,5.68e-05,0.00010736,0.00010808,0.00010394,0.0001059,0.0001104,0.0001068,0.00010498,0.00010378,0.0001064,0.00010528
458,7.168e-05,7.116e-05,7.1e-05,6.998e-05,7.216e-05,7.22e-05,7.402e-05,6.978e-05,7.282e-05,7.256e-05,7.042e-05,7.236e-05,7.012e-05,7.498e-05,7.172e-05,7.264e-05,7.116e-05,6.824e-05,7.064e-05,7.216e-05,6.052e-05,6.002e-05,6.026e-05,6.106e-05,6.068e-05,5.928e-05,6.018e-05,6.136e-05,6.064e-05,6.102e-05,0.00010936,0.00011008,0.0001097,0.00011076,0.00011274,0.00011146,0.0001109,0.00011042,0.00011186,0.0001074
460,7.516e-05,7.706e-05,7.52e-05,7.24e-05,7.536e-05,7.546e-05,7.832e-05,7.572e-05,7.562e-05,7.684e-05,7.684e-05,7.766e-05,7.424e-05,8.24e-05,7.56e-05,7.776e-05,7.672e-05,7.45e-05,7.77e-05,7.762e-05,6.538e-05,6.498e-05,6.462e-05,6.556e-05,6.62e-05,6.422e-05,6.538e-05,6.538e-05,6.484e-05,6.546e-05,0.0001178,0.00011438,0.00011462,0.00011358,0.0001171,0.00011314,0.00011322,0.00011384,0.00011412,0.00011168
462,7.848e-05,8.098e-05,8.08e-05,7.646e-05,7.926e-05,7.984e-05,8.068e-05,7.88e-05,8.204e-05,7.98e-05,8.206e-05,8.36e-05,7.958e-05,8.68e-05,8.124e-05,8.184e-05,8.222e-05,8.056e-05,8.236e-05,8.228e-05,6.914e-05,6.978e-05,6.942e-05,7.024e-05,7.076e-05,6.87e-05,6.958e-05,7.016e-05,6.954e-05,7.006e-05,0.00012182,0.00011562,0.00011786,0.00011882,0.00012338,0.00011412,0.00011492,0.00011604,0.00012002,0.00011534
464,8.364e-05,8.6e-05,8.396e-05,8.232e-05,8.374e-05,8.434e-05,8.508e-05,8.324e-05,8.768e-05,8.246e-05,8.764e-05,9.108e-05,8.636e-05,9.258e-05,8.85e-05,8.948e-05,8.82e-05,8.482e-05,8.792e-05,8.822e-05,7.48e-05,7.532e-05,7.434e-05,7.518e-05,7.608e-05,7.378e-05,7.448e-05,7.528e-05,7.412e-05,7.468e-05,0.00012746,0.00011922,0.00012118,0.0001218,0.00012562,0.00011944,0.0001211,0.0001218,0.00012192,0.0001198
466,8.776e-05,8.986e-05,8.928e-05,9.012e-05,8.944e-05,8.68e-05,9.064e-05,9.2e-05,9.1e-05,9e-05,9.47e-05,9.728e-05,9.298e-05,0.0001002,9.53e-05,9.7e-05,9.58e-05,9.212e-05,9.584e-05,9.478e-05,8.084e-05,8.052e-05,8.038e-05,8.138e-05,8.172e-05,7.93e-05,8.058e-05,8.052e-05,8.066e-05,8.02e-05,0.00013254,0.00012436,0.0001274,0.0001283,0.00012922,0.00012544,0.00012728,0.00012916,0.00012558,0.00012608
468,9.59e-05,9.616e-05,9.588e-05,9.27e-05,9.508e-05,9.298e-05,9.764e-05,9.546e-05,0.00010006,9.566e-05,0.00010398,0.00010584,0.00010044,0.00010776,0.00010384,0.00010536,0.00010344,0.0001028,0.00010234,0.00010364,8.76e-05,8.836e-05,8.8e-05,8.844e-05,8.898e-05,8.648e-05,8.742e-05,8.878e-05,8.742e-05,8.692e-05,0.00013894,0.00013278,0.00013546,0.00013608,0.00013578,0.00013446,0.0001333,0.000137,0.00013836,0.00013216
470,9.892e-05,9.824e-05,9.772e-05,9.504e-05,9.888e-05,9.722e-05,9.81e-05,9.552e-05,0.0001021,9.828e-05,0.00010966,0.00011004,0.00010592,0.00011182,0.00010828,0.00010984,0.00010808,0.00010774,0.00010862,0.00010668,9.28e-05,9.278e-05,9.188e-05,9.204e-05,9.36e-05,9.122e-05,9.08e-05,9.274e-05,9.166e-05,9.104e-05,0.00014024,0.00013526,0.00013844,0.00014,0.00013698,0.00013466,0.00013454,0.00013936,0.00013906,0.00013392
472,9.688e-05,9.75e-05,9.704e-05,9.568e-05,9.778e-05,9.758e-05,9.702e-05,9.47e-05,9.962e-05,9.852e-05,0.00011054,0.00011448,0.00010764,0.00011364,0.00011138,0.00011386,0.00011076,0.00011012,0.00011148,0.00011202,9.56e-05,9.53e-05,9.41e-05,9.468e-05,9.586e-05,9.294e-05,9.338e-05,9.47e-05,9.36e-05,9.344e-05,0.00014096,0.00013216,0.00013916,0.00013826,0.00013782,0.00013552,0.00013694,0.00013694,0.00013654,0.00013408
474,9.582e-05,9.512e-05,9.75e-05,9.614e-05,9.748e-05,9.64e-05,9.624e-05,9.456e-05,0.00010054,9.69e-05,0.00011102,0.00011474,0.00010946,0.00011622,0.00011214,0.0001137,0.00011256,0.00011088,0.0001113,0.00011294,9.63e-05,9.702e-05,9.57e-05,9.602e-05,9.702e-05,9.488e-05,9.454e-05,9.61e-05,9.502e-05,9.464e-05,0.00013694,0.00013088,0.00013472,0.0001347,0.000136,0.00013404,0.00013316,0.00013422,0.00013448,0.00013274
476,9.384e-05,9.198e-05,9.344e-05,9.376e-05,9.322e-05,9.298e-05,9.338e-05,9.178e-05,9.584e-05,9.228e-05,0.00010936,0.00011404,0.00010896,0.000114,0.0001113,0.00011144,0.00011084,0.00011108,0.0001097,0.00011104,9.576e-05,9.662e-05,9.552e-05,9.554e-05,9.622e-05,9.378e-05,9.322e-05,9.47e-05,9.472e-05,9.39e-05,0.00013152,0.00012504,0.00013048,0.00012834,0.00013112,0.00012502,0.0001274,0.0001293,0.0001287,0.0001284
478,9.302e-05,8.998e-05,9.134e-05,9.218e-05,9.158e-05,9.004e-05,9.218e-05,8.996e-05,9.276e-05,9.032e-05,0.00011018,0.00011526,0.0001096,0.00011432,0.0001124,0.00011216,0.00011176,0.00011202,0.00011082,0.00011196,9.658e-05,9.724e-05,9.582e-05,9.684e-05,9.696e-05,9.454e-05,9.422e-05,9.572e-05,9.576e-05,9.514e-05,0.00012736,0.00012158,0.00012972,0.00012636,0.00012614,0.00012226,0.0001253,0.0001277,0.00012694,0.0001252
480,9.61e-05,9.366e-05,9.354e-05,9.366e-05,9.422e-05,9.276e-05,9.33e-05,9.134e-05,9.8e-05,9.572e-05,0.0001176,0.00011972,0.0001157,0.00011944,0.00011854,0.0001185,0.000118,0.00011716,0.00011656,0.00011912,0.00010234,0.0001027,0.00010184,0.00010172,0.00010276,0.00010086,9.982e-05,0.00010178,0.00010168,0.00010032,0.00012724,0.0001227,0.0001295,0.00012492,0.00012782,0.00012476,0.00012548,0.00012732,0.00012564,0.00012532
482,0.00010066,9.728e-05,9.85e-05,0.00010124,9.948e-05,9.798e-05,9.63e-05,9.634e-05,0.00010128,9.906e-05,0.0001277,0.0001291,0.0001244,0.0001286,0.00012766,0.00012788,0.00012796,0.00012964,0.0001277,0.00012704,0.0001107,0.00011132,0.00011014,0.00011016,0.00011024,0.00010926,0.00010786,0.00011028,0.00011064,0.00010866,0.0001333,0.00012902,0.0001321,0.00013142,0.0001308,0.00013048,0.00013286,0.0001347,0.00013028,0.00012944
484,0.0001042,9.95e-05,0.00010206,0.00010498,0.00010036,9.786e-05,9.846e-05,9.936e-05,0.00010382,0.00010138,0.0001345,0.00013804,0.00013156,0.0001349,0.00013424,0.00013298,0.000134,0.00013564,0.0001342,0.00013296,0.0001173,0.000118,0.00011572,0.00011734,0.00011692,0.00011538,0.00011382,0.0001163,0.00011558,0.00011434,0.00013508,0.00012942,0.00013578,0.00013134,0.00013158,0.00013128,0.00013412,0.00013854,0.00013034,0.00013146
486,0.00010316,9.972e-05,0.0001026,0.00010486,9.924e-05,9.896e-05,9.796e-05,9.886e-05,0.00010314,9.938e-05,0.00014258,0.00014592,0.00014054,0.0001428,0.00014232,0.000138,0.00014062,0.00014294,0.00014134,0.00014084,0.00012482,0.00012538,0.00012296,0.00012358,0.00012378,0.00012236,0.00012132,0.000123,0.00012244,0.00012108,0.0001325,0.00012868,0.00013474,0.00013066,0.00013104,0.0001311,0.0001339,0.00013516,0.00013074,0.00013104
488,0.0001041,0.00010026,0.00010258,0.00010538,0.00010148,9.892e-05,0.00010018,9.956e-05,0.0001046,9.972e-05,0.00017226,0.00017416,0.00016908,0.0001706,0.00017144,0.00016598,0.00016802,0.0001709,0.00016788,0.00016766,0.0001508,0.00015242,0.00015032,0.00015044,0.0001504,0.00014692,0.0001458,0.00014888,0.00014744,0.00014632,0.00013826,0.00013298,0.00013746,0.00013414,0.0001348,0.00013428,0.0001376,0.00013756,0.00013192,0.0001352
490,0.00010926,0.0001044,0.00010594,0.0001094,0.00010498,0.00010238,0.00010296,0.00010424,0.00010746,0.00010474,0.0002626,0.0002648,0.0002602,0.000262,0.0002618,0.0002534,0.0002544,0.000257,0.0002538,0.0002536,0.000237,0.0002368,0.0002356,0.0002366,0.0002352,0.0002266,0.0002262,0.0002282,0.0002266,0.000226,0.0001485,0.00014424,0.00014734,0.00014548,0.00014398,0.0001465,0.00014928,0.00014968,0.00014424,0.0001466
492,0.0001157,0.00011034,0.00011364,0.00011614,0.00011198,0.00010936,0.00011018,0.0001105,0.00011284,0.00011012,0.0004604,0.0004614,0.00046,0.0004596,0.0004614,0.0004418,0.0004422,0.0004458,0.0004426,0.0004434,0.0004162,0.0004162,0.000415,0.0004146,0.0004146,0.0003982,0.0003974,0.0003982,0.0003988,0.0003984,0.00017008,0.00016744,0.0001729,0.00016676,0.00016722,0.00016688,0.00016918,0.00017028,0.0001684,0.00016754
494,0.00012002,0.00011708,0.00011974,0.0001206,0.00011788,0.0001157,0.00011552,0.00011614,0.00011804,0.0001168,0.0008244,0.0008242,0.0008208,0.0008198,0.00082,0.0007908,0.0007914,0.0007948,0.0007898,0.0007916,0.0006976,0.0006982,0.0006966,0.000697,0.0006952,0.0006726,0.0006714,0.0006726,0.0006734,0.0006726,0.00019972,0.000201,0.0002014,0.0002004,0.0001986,0.00019726,0.00019914,0.0002006,0.0001944,0.000198
496,0.00012418,0.0001222,0.00012236,0.00012756,0.00012368,0.00011936,0.00011864,0.00011806,0.0001217,0.00011924,0.0013282,0.0013276,0.0013274,0.0013248,0.001325,0.0012784,0.0012788,0.0012822,0.001278,0.001278,0.0009712,0.000972,0.000971,0.00097,0.0009686,0.0009416,0.0009424,0.0009428,0.000944,0.0009428,0.0002336,0.0002324,0.0002348,0.0002332,0.0002308,0.0002286,0.0002342,0.0002316,0.0002282,0.000232
498,0.00013238,0.0001289,0.00013068,0.00013576,0.00012986,0.00012664,0.00012852,0.00012636,0.00012762,0.00012552,0.002006,0.002004,0.002004,0.002002,0.002004,0.001938,0.001938,0.0019416,0.0019376,0.0019404,0.0012084,0.0012082,0.001208,0.0012072,0.0012048,0.0011772,0.0011788,0.0011788,0.0011804,0.0011794,0.000271,0.0002714,0.0002712,0.0002716,0.000269,0.0002674,0.0002706,0.0002708,0.0002656,0.0002726
500,0.00014514,0.00014052,0.00014304,0.0001453,0.00014216,0.00013878,0.0001376,0.00013988,0.00013946,0.00013972,0.002802,0.002798,0.0028,0.002796,0.002798,0.00272,0.002722,0.002726,0.002724,0.002726,0.0014064,0.0014058,0.0014062,0.0014052,0.0014032,0.0013758,0.001378,0.0013782,0.0013788,0.0013792,0.000312,0.0003178,0.0003114,0.0003144,0.0003132,0.0003084,0.0003118,0.0003088,0.0003094,0.0003134
502,0.00016044,0.00015586,0.00015404,0.00016012,0.00015704,0.00015358,0.00015066,0.00015452,0.0001542,0.00015374,0.003566,0.003562,0.003562,0.00356,0.00356,0.00348,0.003484,0.00349,0.003486,0.003488,0.0015592,0.001558,0.001558,0.0015576,0.0015554,0.001529,0.0015326,0.0015322,0.0015334,0.0015336,0.0003484,0.0003538,0.00035,0.0003524,0.0003506,0.0003462,0.0003498,0.0003462,0.000347,0.000349
504,0.00016956,0.00016606,0.00016742,0.0001702,0.00016618,0.00016592,0.00016234,0.0001676,0.00016598,0.0001645,0.004148,0.004142,0.004144,0.00414,0.004142,0.00407,0.004074,0.00408,0.004076,0.004078,0.001653,0.0016518,0.0016516,0.0016514,0.0016488,0.0016262,0.0016306,0.0016292,0.001631,0.0016304,0.0003746,0.0003772,0.0003748,0.0003752,0.0003734,0.0003716,0.0003732,0.0003718,0.0003726,0.0003732
506,0.00017676,0.00017168,0.00017406,0.0001774,0.0001727,0.00017332,0.00016872,0.00017362,0.00017076,0.00017154,0.004456,0.004448,0.004448,0.004446,0.004448,0.004388,0.004396,0.0044,0.004396,0.004398,0.0016462,0.0016448,0.0016454,0.0016456,0.0016432,0.0016292,0.0016328,0.0016312,0.0016328,0.0016326,0.000379,0.0003824,0.0003788,0.0003794,0.0003788,0.0003766,0.0003796,0.0003774,0.0003798,0.0003802
508,0.0001794,0.00017808,0.00017636,0.00017994,0.00017706,0.00017648,0.00017324,0.00017534,0.00017554,0.00017646,0.004434,0.004428,0.004428,0.004426,0.004428,0.004386,0.00439,0.004396,0.00439,0.004392,0.0014774,0.0014752,0.0014754,0.0014764,0.0014744,0.0014734,0.0014752,0.001474,0.0014744,0.0014746,0.0003616,0.0003686,0.000362,0.0003628,0.0003602,0.0003628,0.000362,0.0003618,0.0003626,0.0003648
510,0.00018074,0.00017948,0.00017842,0.00018038,0.00017752,0.00018004,0.0001755,0.00017744,0.00017452,0.00017658,0.004162,0.004156,0.004158,0.004152,0.004156,0.004134,0.004136,0.004144,0.004136,0.004138,0.0011792,0.0011774,0.0011776,0.0011788,0.0011762,0.0011868,0.0011876,0.001186,0.0011856,0.0011868,0.0003344,0.0003376,0.000335,0.0003356,0.0003354,0.000334,0.0003356,0.0003342,0.0003368,0.000336
512,0.00017882,0.00017706,0.00017672,0.00017704,0.00017648,0.00017728,0.00017326,0.00017674,0.0001727,0.00017512,0.00364,0.003634,0.003638,0.003632,0.003634,0.003638,0.003642,0.003648,0.00364,0.003642,0.0008456,0.000844,0.0008448,0.0008458,0.0008434,0.0008572,0.0008574,0.0008558,0.000856,0.000857,0.0003022,0.0003082,0.0003034,0.0003038,0.0003044,0.0003038,0.0003054,0.000303,0.0003036,0.0003038
514,0.00017172,0.00017,0.0001694,0.0001697,0.00017,0.00017162,0.00016674,0.00016948,0.0001671,0.00016778,0.002832,0.002826,0.002828,0.002824,0.002826,0.002856,0.00286,0.002864,0.002858,0.002858,0.0005736,0.0005722,0.0005726,0.0005742,0.0005722,0.0005826,0.0005832,0.0005816,0.0005816,0.000583,0.0002664,0.000273,0.0002668,0.0002702,0.0002668,0.0002694,0.0002704,0.0002688,0.000268,0.0002684
516,0.00015874,0.00015722,0.00015834,0.00015812,0.0001579,0.0001601,0.00015558,0.00015826,0.00015526,0.00015658,0.0018308,0.0018278,0.0018288,0.0018258,0.0018284,0.0018718,0.0018722,0.0018748,0.0018706,0.0018694,0.0003814,0.0003806,0.000381,0.0003824,0.0003804,0.000388,0.0003886,0.000387,0.0003876,0.000389,0.0002326,0.0002332,0.0002292,0.0002324,0.0002312,0.00023,0.0002346,0.0002314,0.00023,0.0002322
518,0.00014934,0.00014736,0.000149,0.00014944,0.00014788,0.00015058,0.00014576,0.00014762,0.00014686,0.00014686,0.000905,0.0009012,0.0009038,0.0009002,0.0009006,0.0009348,0.0009344,0.000936,0.000934,0.0009334,0.0002502,0.0002498,0.0002512,0.0002514,0.0002502,0.0002542,0.0002548,0.0002526,0.000254,0.0002548,0.0002036,0.000207,0.0002022,0.000203,0.0002006,0.0002028,0.0002048,0.0002004,0.0002048,0.0002044
520,0.00014826,0.00014762,0.00014652,0.0001462,0.00014514,0.00014692,0.00014264,0.00014556,0.00014466,0.00014508,0.0004334,0.000431,0.0004334,0.0004314,0.0004316,0.000445,0.0004458,0.0004464,0.000443,0.0004442,0.00019256,0.00019222,0.00019346,0.00019312,0.00019214,0.00019402,0.00019446,0.0001924,0.00019344,0.0001942,0.00019552,0.00019622,0.00018946,0.00019398,0.00019298,0.00019458,0.00019472,0.00019208,0.00019454,0.00019472
522,0.00015022,0.00014796,0.00014648,0.00014574,0.00014584,0.0001488,0.00014372,0.00014496,0.0001452,0.00014548,0.0002924,0.0002908,0.000293,0.000291,0.0002908,0.0002946,0.0002956,0.0002954,0.0002952,0.0002944,0.00017546,0.00017472,0.00017622,0.00017578,0.00017476,0.00017554,0.00017638,0.00017488,0.00017532,0.00017548,0.00019462,0.00019692,0.00019068,0.00019364,0.00019374,0.00019308,0.00019606,0.00019156,0.00019398,0.00019272
524,0.00015204,0.00014882,0.00014986,0.00014868,0.00014826,0.00015132,0.00014772,0.00014724,0.00014792,0.00014814,0.0002612,0.0002584,0.0002622,0.0002604,0.0002584,0.0002604,0.0002604,0.000261,0.0002598,0.000259,0.0001708,0.0001702,0.00017106,0.00017084,0.00017004,0.00017002,0.0001713,0.00016928,0.00017078,0.00017062,0.00019726,0.00019968,0.00019448,0.00019696,0.00019762,0.0001978,0.0001973,0.00019628,0.00019784,0.00019478
526,0.00015394,0.0001529,0.00015418,0.00015308,0.0001529,0.00015444,0.0001536,0.00015098,0.0001525,0.00015282,0.0002538,0.0002524,0.0002564,0.0002548,0.0002524,0.000255,0.0002536,0.0002544,0.0002532,0.0002524,0.00016884,0.00016828,0.00016954,0.00016918,0.00016912,0.00016796,0.0001697,0.00016786,0.00016898,0.00016896,0.0002044,0.0002046,0.00019978,0.0002026,0.0002028,0.00019942,0.0002016,0.00019942,0.0002008,0.0002004
528,0.00015724,0.00015594,0.00015634,0.00015616,0.00015724,0.00015698,0.00015604,0.00015674,0.0001552,0.00015512,0.0002496,0.0002494,0.0002518,0.0002508,0.0002496,0.0002516,0.0002508,0.0002502,0.0002488,0.0002488,0.00016724,0.00016714,0.00016762,0.00016742,0.00016704,0.00016654,0.00016834,0.0001668,0.0001666,0.00016672,0.0002086,0.0002084,0.0002038,0.0002064,0.0002038,0.0002048,0.0002046,0.000204,0.0002064,0.0002038
530,0.00016124,0.0001607,0.00016072,0.0001596,0.00016024,0.00015968,0.00015758,0.00015928,0.00015794,0.00015986,0.0002442,0.0002428,0.0002466,0.000247,0.000244,0.000245,0.000245,0.0002446,0.0002446,0.0002436,0.00016644,0.00016612,0.00016704,0.00016626,0.00016598,0.00016562,0.00016706,0.00016532,0.00016586,0.00016564,0.0002114,0.000212,0.0002076,0.0002104,0.0002102,0.000209,0.0002092,0.0002084,0.00021,0.0002078
532,0.00016644,0.00016418,0.00016442,0.00016196,0.00016382,0.0001641,0.0001626,0.00016242,0.00016362,0.00016454,0.0002384,0.0002368,0.0002408,0.0002414,0.0002384,0.0002398,0.00024,0.000239,0.0002388,0.0002384,0.0001658,0.00016614,0.00016706,0.0001656,0.0001662,0.00016484,0.00016634,0.00016562,0.00016564,0.00016536,0.0002176,0.0002158,0.0002098,0.000215,0.0002154,0.0002138,0.0002134,0.0002122,0.0002146,0.0002124
534,0.00016892,0.000168,0.00016828,0.00016654,0.00016926,0.0001675,0.00016636,0.00016674,0.0001658,0.0001677,0.000234,0.0002332,0.000236,0.0002364,0.0002346,0.0002344,0.0002352,0.000234,0.000234,0.0002338,0.00016582,0.00016604,0.0001672,0.00016606,0.00016594,0.00016462,0.00016676,0.00016532,0.00016536,0.00016534,0.0002218,0.0002222,0.0002176,0.0002206,0.000221,0.0002172,0.0002186,0.0002178,0.0002176,0.000218
536,0.000173,0.00017258,0.00017344,0.00017114,0.0001738,0.00017138,0.00017022,0.0001709,0.00017138,0.0001716,0.0002322,0.0002306,0.0002338,0.0002342,0.0002326,0.0002316,0.0002338,0.0002306,0.0002316,0.000231,0.0001668,0.0001669,0.00016778,0.0001669,0.0001665,0.00016524,0.0001672,0.00016568,0.00016626,0.00016586,0.000227,0.0002268,0.0002232,0.000224,0.0002268,0.000223,0.0002234,0.0002236,0.0002244,0.0002218
538,0.00017636,0.00017656,0.00017738,0.0001748,0.00017784,0.00017488,0.00017444,0.00017376,0.00017622,0.0001772,0.0002316,0.0002298,0.0002342,0.000234,0.0002326,0.0002316,0.0002328,0.000231,0.0002316,0.000231,0.00016736,0.00016798,0.00016874,0.00016736,0.00016792,0.00016624,0.0001679,0.00016704,0.00016774,0.00016694,0.0002346,0.0002334,0.0002284,0.0002312,0.0002314,0.0002302,0.0002306,0.0002302,0.0002326,0.0002288
540,0.0001813,0.00018242,0.00018024,0.00017972,0.0001828,0.0001792,0.00018074,0.0001788,0.0001802,0.00018244,0.0002328,0.0002316,0.000234,0.0002348,0.000234,0.0002336,0.0002336,0.0002318,0.0002336,0.000232,0.00016904,0.0001692,0.0001702,0.00016814,0.00016916,0.00016834,0.00016956,0.00016904,0.00016932,0.00016824,0.0002396,0.000238,0.0002378,0.000238,0.0002398,0.000238,0.0002388,0.0002386,0.0002404,0.0002372
542,0.00018726,0.0001873,0.00018726,0.00018542,0.00018924,0.00018574,0.00018538,0.00018684,0.00018874,0.00018804,0.000233,0.0002328,0.0002368,0.000238,0.000235,0.0002348,0.0002352,0.0002324,0.0002358,0.000234,0.00017174,0.0001721,0.000172,0.00017086,0.00017208,0.00016992,0.00017216,0.00017178,0.0001717,0.00017004,0.0002478,0.0002466,0.0002476,0.0002498,0.0002498,0.0002476,0.000249,0.0002496,0.0002514,0.0002472
544,0.00019378,0.00019408,0.00019378,0.00019376,0.0001953,0.00019316,0.00019228,0.0001929,0.00019396,0.00019558,0.0002356,0.0002342,0.0002372,0.0002386,0.0002372,0.0002364,0.0002362,0.0002354,0.000236,0.000235,0.00017386,0.00017386,0.0001743,0.00017296,0.00017408,0.0001723,0.00017398,0.0001741,0.00017376,0.00017314,0.000262,0.0002588,0.000258,0.0002584,0.000261,0.0002574,0.0002576,0.0002588,0.0002604,0.000259
546,0.00019886,0.000199,0.00019844,0.0001987,0.0002008,0.00019788,0.00019846,0.0001983,0.00019988,0.000202,0.0002366,0.0002356,0.000237,0.0002384,0.000237,0.0002366,0.0002364,0.0002352,0.0002368,0.0002362,0.00017516,0.00017536,0.00017562,0.00017448,0.0001757,0.00017386,0.00017492,0.00017472,0.00017494,0.00017388,0.000271,0.0002698,0.0002702,0.0002702,0.0002712,0.000267,0.0002694,0.0002704,0.0002708,0.0002688
548,0.0002038,0.000205,0.0002028,0.0002038,0.000205,0.000204,0.0002054,0.0002042,0.000205,0.0002076,0.0002366,0.000237,0.000238,0.0002396,0.0002374,0.0002374,0.0002376,0.0002356,0.000237,0.0002376,0.00017666,0.00017714,0.00017682,0.00017616,0.00017742,0.00017564,0.00017692,0.00017614,0.00017654,0.00017588,0.0002822,0.000283,0.0002818,0.0002826,0.000283,0.0002796,0.0002816,0.0002846,0.0002848,0.0002804
550,0.0002094,0.0002102,0.0002084,0.0002082,0.0002106,0.0002096,0.0002096,0.0002096,0.0002094,0.000212,0.0002374,0.0002368,0.0002384,0.0002396,0.0002364,0.0002366,0.0002366,0.0002368,0.000237,0.0002372,0.00017812,0.00017838,0.00017812,0.00017786,0.00017866,0.00017756,0.00017826,0.00017812,0.00017842,0.00017766,0.0002984,0.0002984,0.0002952,0.0002976,0.000299,0.000297,0.0002962,0.000299,0.0003004,0.0002968
552,0.0002158,0.0002158,0.0002136,0.0002144,0.0002166,0.0002138,0.0002154,0.0002142,0.0002158,0.0002184,0.000237,0.000237,0.0002384,0.0002388,0.0002372,0.0002374,0.0002364,0.0002358,0.000237,0.0002358,0.00017952,0.0001796,0.00017872,0.00017952,0.00017956,0.0001792,0.0001797,0.00017968,0.00017962,0.00017904,0.0003166,0.0003154,0.0003176,0.0003176,0.0003182,0.000316,0.0003174,0.0003194,0.0003188,0.0003164
554,0.0002202,0.0002214,0.0002188,0.0002202,0.000222,0.0002216,0.0002212,0.0002206,0.0002212,0.0002242,0.000237,0.000236,0.0002384,0.0002394,0.0002372,0.0002376,0.0002382,0.000235,0.0002376,0.0002372,0.0001808,0.0001809,0.00018034,0.00017978,0.00018074,0.00018066,0.00018152,0.00018094,0.00018076,0.00018014,0.0003412,0.0003406,0.0003424,0.0003422,0.000343,0.000341,0.0003414,0.0003466,0.0003456,0.0003426
556,0.0002268,0.0002262,0.0002248,0.0002254,0.0002256,0.0002262,0.0002262,0.0002248,0.0002256,0.0002288,0.0002372,0.0002362,0.0002384,0.0002386,0.0002366,0.0002362,0.0002374,0.0002362,0.0002362,0.0002358,0.00018166,0.00018164,0.00018092,0.00018052,0.00018154,0.00018122,0.0001816,0.00018126,0.00018142,0.00018132,0.0003854,0.0003834,0.0003848,0.0003846,0.000387,0.0003808,0.0003832,0.0003856,0.0003854,0.0003822
558,0.0002322,0.000233,0.0002306,0.000231,0.000232,0.000231,0.0002318,0.0002308,0.000232,0.000233,0.000238,0.000237,0.0002384,0.0002384,0.000237,0.000237,0.0002366,0.000237,0.0002372,0.0002366,0.0001825,0.0001824,0.0001818,0.00018192,0.00018274,0.00018216,0.00018224,0.00018208,0.00018228,0.00018136,0.0004952,0.0004922,0.0004946,0.0004938,0.0004958,0.000484,0.0004844,0.000486,0.0004866,0.0004844
560,0.0002386,0.0002394,0.000237,0.000238,0.000239,0.0002376,0.0002382,0.0002368,0.0002384,0.000239,0.0002382,0.0002362,0.000239,0.0002388,0.0002378,0.0002376,0.000237,0.0002376,0.000237,0.0002366,0.00018376,0.00018374,0.0001825,0.00018356,0.00018334,0.00018336,0.0001833,0.00018316,0.00018304,0.0001826,0.000799,0.0007938,0.0007976,0.000795,0.000796,0.0007664,0.0007684,0.0007694,0.000771,0.0007708
562,0.0002458,0.000247,0.0002446,0.0002448,0.0002472,0.0002446,0.0002434,0.000243,0.0002458,0.0002462,0.0002388,0.0002374,0.0002386,0.0002386,0.0002358,0.0002368,0.0002384,0.0002368,0.000238,0.000237,0.00018474,0.00018438,0.0001829,0.00018446,0.00018412,0.00018418,0.00018336,0.00018354,0.00018376,0.0001834,0.00146,0.0014516,0.0014562,0.0014532,0.0014578,0.0013982,0.0013964,0.0013984,0.0014006,0.001399
564,0.0002574,0.0002614,0.0002564,0.0002576,0.0002586,0.0002562,0.0002556,0.0002558,0.0002582,0.0002592,0.0002384,0.000239,0.0002392,0.0002392,0.0002382,0.0002372,0.000238,0.0002374,0.0002374,0.000237,0.00018566,0.00018532,0.00018342,0.0001855,0.0001853,0.0001846,0.00018422,0.00018496,0.00018424,0.00018388,0.002654,0.002652,0.002654,0.00265,0.002654,0.002562,0.002562,0.002564,0.00257,0.002564
566,0.000284,0.0002854,0.0002812,0.0002838,0.0002818,0.0002806,0.0002804,0.0002802,0.0002816,0.0002826,0.0002408,0.000239,0.00024,0.00024,0.000239,0.0002388,0.0002386,0.0002392,0.0002394,0.000238,0.00018728,0.00018722,0.00018524,0.00018696,0.00018698,0.0001859,0.0001855,0.0001864,0.00018614,0.00018502,0.004064,0.00406,0.00406,0.00406,0.00406,0.003944,0.003946,0.003948,0.003954,0.003948
568,0.0003364,0.0003386,0.0003366,0.000337,0.0003354,0.0003306,0.0003312,0.0003316,0.0003322,0.0003328,0.0002426,0.0002414,0.0002418,0.0002428,0.0002418,0.0002414,0.0002414,0.0002416,0.0002418,0.0002402,0.00018926,0.0001889,0.000187,0.00018892,0.0001886,0.00018806,0.00018736,0.00018802,0.0001882,0.0001873,0.005562,0.005554,0.00556,0.005556,0.005558,0.005418,0.005422,0.005424,0.005432,0.005422
570,0.0004806,0.0004832,0.0004782,0.0004794,0.0004784,0.000466,0.0004662,0.0004638,0.0004682,0.000468,0.000246,0.0002466,0.0002454,0.0002458,0.0002452,0.0002438,0.0002452,0.000246,0.0002456,0.0002442,0.00019114,0.00019088,0.00018928,0.000191,0.00019056,0.00018988,0.0001892,0.00018944,0.0001897,0.00018918,0.007084,0.00708,0.007084,0.00708,0.007084,0.006924,0.006928,0.006928,0.006934,0.006928
572,0.0008562,0.000858,0.00085,0.0008524,0.0008486,0.0008168,0.0008164,0.0008176,0.0008192,0.0008186,0.0002534,0.000253,0.0002524,0.0002526,0.0002524,0.0002514,0.000251,0.0002516,0.0002516,0.0002508,0.00019344,0.00019362,0.00019246,0.00019382,0.00019288,0.00019236,0.00019128,0.00019194,0.00019222,0.00019174,0.00858,0.008576,0.008582,0.00858,0.00858,0.008404,0.008408,0.008406,0.008414,0.008406
574,0.0016534,0.0016578,0.0016486,0.0016504,0.0016462,0.001585,0.0015838,0.0015842,0.0015838,0.0015866,0.0002654,0.0002642,0.0002642,0.0002642,0.0002646,0.0002622,0.0002614,0.000264,0.0002636,0.000261,0.00019694,0.0001966,0.00019564,0.00019654,0.00019538,0.0001959,0.00019466,0.00019514,0.00019488,0.000195,0.010046,0.010042,0.010046,0.010044,0.01004,0.009852,0.009856,0.009856,0.009864,0.009848
576,0.00288,0.002886,0.002874,0.002874,0.00287,0.002782,0.00278,0.00278,0.00278,0.002784,0.0002842,0.0002828,0.0002822,0.000282,0.0002832,0.0002792,0.0002808,0.0002826,0.0002804,0.0002794,0.000201,0.0002008,0.00019942,0.0002018,0.0002008,0.0001995,0.00019832,0.0002,0.00019884,0.00019926,0.011296,0.011298,0.011298,0.011296,0.011292,0.011106,0.011106,0.011108,0.011114,0.011098
578,0.004196,0.004202,0.004188,0.00419,0.004184,0.004074,0.00407,0.004072,0.004072,0.004078,0.0003066,0.0003044,0.000304,0.0003046,0.0003054,0.0003018,0.0003032,0.0003044,0.0003028,0.0003,0.0002072,0.0002064,0.0002054,0.000207,0.000206,0.0002052,0.0002042,0.000205,0.0002042,0.0002048,0.012104,0.012106,0.012106,0.012106,0.012102,0.011926,0.011924,0.011928,0.011934,0.011918
580,0.005558,0.00556,0.005546,0.00555,0.00554,0.005414,0.00541,0.005414,0.00541,0.005424,0.0003396,0.0003386,0.0003382,0.000339,0.0003394,0.0003336,0.0003358,0.0003368,0.0003362,0.0003332,0.0002162,0.000216,0.0002152,0.0002164,0.0002154,0.0002148,0.000213,0.0002136,0.0002138,0.000214,0.012586,0.012588,0.012586,0.012588,0.012584,0.01243,0.012426,0.012428,0.012436,0.012418
582,0.006868,0.00687,0.006856,0.006858,0.00685,0.006708,0.006704,0.006708,0.006706,0.006724,0.0004052,0.0004056,0.0004042,0.000405,0.000406,0.0003974,0.0003978,0.0004004,0.000398,0.0003976,0.0002356,0.0002354,0.0002348,0.000236,0.0002344,0.0002334,0.0002314,0.000232,0.000232,0.0002328,0.012806,0.01281,0.01281,0.012812,0.012808,0.012674,0.012668,0.012672,0.012682,0.01266
584,0.008056,0.008062,0.008046,0.008048,0.008044,0.007888,0.007882,0.007888,0.007884,0.007914,0.000559,0.0005578,0.0005592,0.0005578,0.0005594,0.0005434,0.0005436,0.0005434,0.0005436,0.0005436,0.0002758,0.0002758,0.0002742,0.0002758,0.000274,0.0002714,0.0002698,0.00027,0.0002702,0.0002702,0.012838,0.012848,0.012848,0.012848,0.012846,0.012728,0.012722,0.01273,0.012738,0.01272
586,0.00913,0.009132,0.009118,0.00912,0.009116,0.008954,0.008946,0.008954,0.008954,0.008988,0.0009016,0.0008984,0.0009022,0.0009032,0.0009028,0.0008732,0.0008752,0.0008754,0.000877,0.0008754,0.0003606,0.0003606,0.00036,0.0003604,0.0003592,0.0003534,0.0003516,0.0003518,0.000352,0.000352,0.0127,0.01271,0.01271,0.012714,0.01271,0.0126,0.012598,0.012608,0.012618,0.012602
588,0.009752,0.009754,0.009744,0.009742,0.009738,0.009588,0.009584,0.00959,0.009594,0.009628,0.0013094,0.0013064,0.0013092,0.001308,0.0013108,0.0012744,0.0012758,0.0012774,0.001276,0.0012758,0.000479,0.0004794,0.0004782,0.0004792,0.0004772,0.000468,0.0004662,0.0004668,0.0004674,0.000468,0.012504,0.012514,0.012514,0.012518,0.012512,0.01241,0.012406,0.01242,0.012428,0.012412
590,0.009898,0.009898,0.00989,0.009888,0.009882,0.009776,0.009774,0.009784,0.009788,0.009804,0.001673,0.0016686,0.0016714,0.001671,0.0016732,0.0016384,0.0016396,0.001641,0.0016398,0.0016426,0.0006332,0.000634,0.0006332,0.0006336,0.0006318,0.000619,0.0006178,0.0006186,0.0006188,0.000619,0.01222,0.012232,0.012232,0.012232,0.012228,0.012132,0.012136,0.012146,0.01216,0.012144
592,0.009404,0.009402,0.009396,0.009394,0.009388,0.009352,0.009354,0.009366,0.00937,0.009354,0.0019012,0.0018966,0.0019012,0.0018994,0.0019026,0.0018728,0.0018748,0.0018776,0.001875,0.0018768,0.000832,0.0008316,0.0008316,0.000831,0.0008284,0.0008124,0.0008116,0.0008122,0.0008134,0.0008126,0.011868,0.01188,0.011878,0.01188,0.011874,0.011788,0.011794,0.011806,0.011818,0.011804
594,0.00826,0.008256,0.008252,0.00825,0.008246,0.008278,0.008282,0.008294,0.008298,0.00826,0.0019998,0.0019936,0.002,0.0019982,0.002002,0.0019786,0.00198,0.0019824,0.00198,0.0019814,0.001074,0.0010734,0.0010746,0.0010738,0.0010716,0.00105,0.0010504,0.0010514,0.0010524,0.0010516,0.011458,0.011468,0.011464,0.011464,0.01146,0.011388,0.01139,0.011406,0.011416,0.011404
596,0.0065,0.006494,0.006498,0.006494,0.006492,0.006556,0.00656,0.00657,0.006576,0.006538,0.002004,0.0019976,0.002002,0.002,0.002006,0.0019888,0.001989,0.0019886,0.001988,0.0019904,0.001386,0.001387,0.0013872,0.001385,0.0013836,0.0013578,0.0013594,0.0013594,0.0013612,0.0013606,0.010926,0.010938,0.010934,0.010934,0.010932,0.01087,0.010874,0.010884,0.010896,0.01088
598,0.00483,0.004824,0.004828,0.00483,0.004826,0.00489,0.004892,0.0049,0.0049,0.004878,0.0019288,0.0019238,0.0019274,0.0019264,0.0019304,0.0019178,0.0019204,0.001921,0.0019194,0.0019182,0.0017058,0.0017058,0.0017064,0.0017052,0.0017028,0.001673,0.0016768,0.0016766,0.0016776,0.0016762,0.010414,0.010426,0.01042,0.010426,0.010424,0.010368,0.010366,0.010374,0.01039,0.010372
600,0.003418,0.003412,0.00342,0.00342,0.003418,0.003466,0.003468,0.003472,0.003472,0.00346,0.0017468,0.0017422,0.001746,0.001744,0.0017502,0.0017444,0.0017472,0.0017466,0.001746,0.0017458,0.00203,0.00203,0.00203,0.00203,0.002026,0.0019918,0.0019984,0.0019986,0.0019994,0.0019972,0.009916,0.009926,0.009926,0.009928,0.009928,0.009872,0.009866,0.009876,0.00989,0.009872
602,0.00228,0.002276,0.002284,0.002284,0.002282,0.00232,0.00232,0.002322,0.002324,0.002316,0.001437,0.0014326,0.0014368,0.001435,0.0014396,0.0014422,0.001445,0.0014442,0.001443,0.001443,0.002344,0.002346,0.002348,0.002344,0.002342,0.002304,0.002314,0.002312,0.002314,0.002312,0.009424,0.009436,0.009432,0.009438,0.009436,0.009382,0.009376,0.009382,0.009394,0.00938
604,0.001375,0.001372,0.0013766,0.0013788,0.0013752,0.0014066,0.0014068,0.0014058,0.0014084,0.001404,0.0011008,0.0010968,0.0011012,0.0011,0.001102,0.001106,0.0011074,0.001106,0.0011054,0.0011056,0.002646,0.002646,0.002648,0.002646,0.002644,0.002602,0.002614,0.002612,0.002614,0.002612,0.008922,0.008936,0.00893,0.008936,0.008938,0.008882,0.008876,0.008884,0.008894,0.008882
606,0.0006976,0.0006954,0.0007018,0.0007036,0.0007002,0.0007188,0.00072,0.0007186,0.0007192,0.0007166,0.001011,0.0010062,0.0010142,0.0010098,0.0010126,0.0009966,0.0009968,0.0009942,0.0009946,0.000997,0.00292,0.00292,0.002922,0.00292,0.002916,0.002874,0.00289,0.002888,0.002888,0.002888,0.008318,0.00833,0.008324,0.008324,0.008328,0.008282,0.00828,0.008286,0.008294,0.008284
608,0.000402,0.0004018,0.0004028,0.0004074,0.0004044,0.0004116,0.0004112,0.0004094,0.000411,0.000411,0.001452,0.0014482,0.0014532,0.0014528,0.0014536,0.0014048,0.0014052,0.0014028,0.0014046,0.0014082,0.00307,0.00307,0.003072,0.003068,0.003066,0.00303,0.003042,0.003042,0.003042,0.003042,0.007596,0.007608,0.007596,0.007604,0.0076,0.007576,0.007576,0.007578,0.007584,0.007582
610,0.0003124,0.000312,0.0003142,0.0003162,0.0003144,0.0003156,0.0003178,0.0003148,0.0003176,0.0003158,0.002308,0.002302,0.00231,0.002308,0.002306,0.002234,0.002232,0.002232,0.002234,0.002238,0.00308,0.003078,0.003082,0.003078,0.003076,0.00305,0.003058,0.003058,0.003058,0.003058,0.00672,0.00673,0.00672,0.006728,0.006726,0.006718,0.00672,0.006726,0.006728,0.006728
612,0.0002874,0.000285,0.0002894,0.0002878,0.0002878,0.0002888,0.0002902,0.0002854,0.0002892,0.000288,0.003386,0.00338,0.003386,0.003386,0.003384,0.003292,0.00329,0.003292,0.003294,0.003298,0.002942,0.002942,0.002944,0.00294,0.002938,0.002926,0.002928,0.002926,0.002928,0.002928,0.005738,0.005746,0.005734,0.005746,0.005744,0.005748,0.005748,0.005754,0.00576,0.005754
614,0.0002756,0.0002764,0.0002788,0.0002776,0.0002788,0.000278,0.0002776,0.0002754,0.0002776,0.000278,0.004542,0.004534,0.004544,0.004546,0.004542,0.004432,0.00443,0.004436,0.004436,0.004444,0.002658,0.002658,0.00266,0.002656,0.002654,0.002656,0.002654,0.002652,0.002652,0.002654,0.004724,0.004734,0.004724,0.004732,0.004732,0.004742,0.004744,0.004748,0.00475,0.00475
616,0.000272,0.0002738,0.0002752,0.0002784,0.0002774,0.000276,0.0002766,0.000274,0.0002754,0.0002776,0.005784,0.005776,0.005786,0.005788,0.005782,0.005658,0.005658,0.005662,0.005664,0.005672,0.002206,0.002206,0.002208,0.002206,0.002206,0.002218,0.002212,0.002212,0.002212,0.002214,0.00364,0.00365,0.003642,0.003646,0.003652,0.003664,0.003668,0.003676,0.00367,0.003672
618,0.0002844,0.0002838,0.0002872,0.0002876,0.0002896,0.0002854,0.0002894,0.0002814,0.000283,0.0002862,0.006912,0.006902,0.006914,0.006916,0.006908,0.006774,0.006774,0.006784,0.006784,0.006792,0.0016928,0.001692,0.0016936,0.001691,0.0016922,0.0017096,0.0017068,0.0017056,0.0017064,0.001708,0.002658,0.002664,0.002656,0.002664,0.002668,0.002682,0.002686,0.00269,0.002688,0.002688
620,0.0003118,0.0003136,0.0003154,0.0003144,0.0003178,0.0003102,0.0003148,0.0003084,0.000311,0.000313,0.00787,0.00786,0.00787,0.00787,0.007864,0.007728,0.00773,0.007738,0.007736,0.007746,0.0011932,0.0011926,0.0011938,0.0011918,0.0011932,0.0012122,0.0012124,0.0012112,0.001211,0.0012134,0.0018216,0.001827,0.0018196,0.0018246,0.0018268,0.0018498,0.0018488,0.0018526,0.0018492,0.0018504
622,0.0003634,0.0003662,0.0003654,0.0003666,0.000369,0.000361,0.0003658,0.00036,0.0003598,0.0003636,0.00866,0.00865,0.008658,0.008658,0.008652,0.00852,0.008524,0.008532,0.00853,0.00854,0.0007846,0.0007844,0.0007854,0.0007834,0.0007836,0.0007968,0.0007992,0.0007974,0.0007982,0.0007988,0.0011604,0.0011656,0.0011568,0.0011622,0.001167,0.001184,0.001182,0.0011864,0.0011818,0.0011816
624,0.0004416,0.0004412,0.0004424,0.0004418,0.0004442,0.0004336,0.0004394,0.0004324,0.000433,0.000439,0.009198,0.009186,0.009196,0.009194,0.009188,0.009068,0.009074,0.009084,0.00908,0.009088,0.0006112,0.000612,0.0006128,0.0006104,0.0006108,0.0006076,0.0006106,0.0006092,0.0006104,0.000609,0.0008358,0.0008358,0.0008298,0.0008334,0.0008422,0.000835,0.0008394,0.0008384,0.000833,0.000834
626,0.0005594,0.0005592,0.0005582,0.0005592,0.0005626,0.0005488,0.0005556,0.0005472,0.0005478,0.0005526,0.009464,0.009454,0.009462,0.00946,0.009452,0.009352,0.009356,0.00937,0.009362,0.009372,0.0007792,0.0007796,0.0007814,0.0007786,0.000778,0.0007542,0.0007592,0.0007578,0.0007586,0.0007568,0.0009444,0.0009464,0.0009386,0.0009412,0.0009492,0.0009232,0.0009214,0.0009214,0.0009192,0.00092
628,0.0007046,0.0007066,0.0007044,0.0007042,0.0007084,0.0006962,0.0006996,0.0006926,0.000691,0.0006968,0.009432,0.009422,0.009428,0.00943,0.00942,0.00934,0.009344,0.009358,0.009346,0.009358,0.0011786,0.001179,0.0011808,0.0011782,0.0011772,0.0011394,0.0011462,0.0011436,0.0011446,0.001143,0.0013428,0.0013436,0.0013406,0.0013412,0.0013488,0.0013082,0.001314,0.0013104,0.0013088,0.0013048
630,0.0008688,0.0008708,0.0008692,0.0008668,0.0008728,0.0008572,0.0008588,0.000853,0.0008504,0.0008576,0.009206,0.009192,0.009202,0.009202,0.009194,0.009126,0.009132,0.009146,0.00913,0.009144,0.001646,0.0016474,0.0016488,0.0016454,0.0016444,0.001599,0.0016064,0.0016038,0.0016058,0.001603,0.001835,0.0018308,0.0018308,0.0018336,0.0018418,0.0017904,0.0017948,0.0017914,0.0017876,0.0017832
632,0.0010496,0.0010506,0.0010494,0.0010494,0.0010532,0.0010322,0.0010364,0.0010288,0.0010302,0.0010334,0.008846,0.008836,0.008842,0.008844,0.008838,0.008776,0.00878,0.008794,0.008778,0.00879,0.002136,0.002138,0.002138,0.002136,0.002134,0.00208,0.00209,0.002086,0.00209,0.002086,0.00235,0.00235,0.00235,0.002352,0.002362,0.0023,0.002302,0.002302,0.002296,0.002292
634,0.0012436,0.0012436,0.00124,0.00124,0.0012414,0.0012202,0.001227,0.0012192,0.0012186,0.0012198,0.008418,0.008408,0.008412,0.008416,0.008408,0.00835,0.008354,0.008364,0.00835,0.008358,0.002626,0.002628,0.002628,0.002626,0.002624,0.002562,0.002576,0.00257,0.002572,0.00257,0.00287,0.00287,0.002872,0.002872,0.002882,0.002814,0.002816,0.002816,0.002808,0.002804
636,0.0014518,0.0014506,0.0014476,0.0014476,0.001453,0.0014248,0.001432,0.001425,0.001424,0.0014286,0.007908,0.007902,0.007906,0.00791,0.0079,0.00784,0.007842,0.007852,0.007838,0.007844,0.003144,0.003146,0.003146,0.003144,0.003142,0.003074,0.003088,0.003082,0.003086,0.003082,0.00342,0.003414,0.003416,0.00342,0.00343,0.003354,0.003354,0.003356,0.00335,0.003342
638,0.0016414,0.0016404,0.001638,0.0016352,0.0016412,0.0016124,0.0016174,0.0016114,0.0016072,0.0016144,0.007448,0.007442,0.007444,0.007448,0.007438,0.007374,0.007374,0.007384,0.00737,0.007378,0.00358,0.003582,0.003582,0.00358,0.00358,0.003504,0.003522,0.003518,0.00352,0.003518,0.003864,0.003862,0.003864,0.003872,0.003876,0.003796,0.003796,0.003802,0.003796,0.003786
640,0.0018192,0.0018174,0.001815,0.0018112,0.0018204,0.0017868,0.00179,0.0017856,0.0017814,0.001785,0.007044,0.007038,0.00704,0.007042,0.007032,0.006966,0.006966,0.006976,0.006962,0.006972,0.003918,0.00392,0.00392,0.003916,0.003916,0.003842,0.003862,0.003856,0.003858,0.003858,0.004162,0.004162,0.004166,0.00417,0.004174,0.004094,0.0041,0.004106,0.0041,0.004088
642,0.0019798,0.0019794,0.0019756,0.0019702,0.001981,0.0019464,0.0019478,0.0019456,0.0019408,0.001944,0.006672,0.006668,0.00667,0.00667,0.00666,0.006594,0.006596,0.006606,0.006594,0.006602,0.004124,0.004124,0.004124,0.00412,0.004118,0.004052,0.004068,0.004064,0.004066,0.004064,0.004268,0.004264,0.004268,0.004272,0.004276,0.00421,0.004216,0.004218,0.00421,0.004202
644,0.002132,0.002134,0.00213,0.002124,0.002134,0.002098,0.002102,0.002098,0.002098,0.0021,0.006342,0.006336,0.006336,0.006336,0.006328,0.006264,0.006268,0.00628,0.006266,0.006276,0.004194,0.004194,0.004192,0.004188,0.004188,0.00413,0.004142,0.004138,0.00414,0.00414,0.00421,0.004208,0.004212,0.004216,0.004218,0.004164,0.00417,0.004174,0.00417,0.004158
646,0.002302,0.002306,0.002298,0.002294,0.002298,0.002266,0.00227,0.002266,0.002264,0.002264,0.006004,0.005998,0.005996,0.005996,0.00599,0.005932,0.005934,0.005946,0.00594,0.005944,0.004102,0.004102,0.004102,0.004098,0.004096,0.004056,0.00406,0.004056,0.004058,0.004058,0.004022,0.004026,0.004032,0.004038,0.004038,0.00399,0.003998,0.004006,0.003998,0.003988
648,0.002434,0.00244,0.002432,0.00243,0.002436,0.002404,0.002406,0.002402,0.002406,0.002402,0.005738,0.005732,0.00573,0.005732,0.005724,0.005672,0.005678,0.00569,0.005684,0.005686,0.003872,0.003872,0.003872,0.003868,0.003866,0.003842,0.003842,0.00384,0.003842,0.003842,0.003744,0.003742,0.003746,0.003752,0.003756,0.003722,0.003732,0.003738,0.003732,0.003724
650,0.002544,0.002548,0.002542,0.002538,0.002542,0.002514,0.002514,0.002516,0.002516,0.002518,0.005476,0.00547,0.00547,0.00547,0.005462,0.005416,0.005422,0.005436,0.00543,0.005436,0.003496,0.003494,0.003494,0.003492,0.003492,0.003482,0.003478,0.003478,0.003478,0.00348,0.00334,0.00334,0.003348,0.003354,0.003354,0.003334,0.00334,0.003344,0.003338,0.003332
652,0.00262,0.00262,0.002614,0.002612,0.002616,0.002586,0.002592,0.002592,0.00259,0.002592,0.005186,0.005182,0.005182,0.005178,0.005174,0.005136,0.005142,0.005152,0.005148,0.00515,0.002984,0.002984,0.002984,0.002982,0.002984,0.002986,0.002982,0.002982,0.002982,0.002982,0.002844,0.002846,0.002854,0.002856,0.002858,0.002846,0.002852,0.00286,0.002854,0.002846
654,0.002666,0.002672,0.002666,0.002664,0.002666,0.002638,0.002646,0.002648,0.002644,0.002642,0.004892,0.00489,0.00489,0.004886,0.004886,0.00485,0.004852,0.004864,0.00486,0.004862,0.002402,0.002402,0.002402,0.002402,0.002402,0.002412,0.00241,0.00241,0.00241,0.00241,0.002306,0.002312,0.002314,0.00232,0.002322,0.002318,0.002322,0.002328,0.002322,0.002314
656,0.002716,0.00272,0.002718,0.00271,0.00271,0.002688,0.002692,0.002694,0.002696,0.002696,0.004608,0.004608,0.004606,0.004604,0.004602,0.004574,0.004574,0.00458,0.004578,0.00458,0.0017702,0.0017692,0.001768,0.00177,0.001771,0.0017842,0.0017856,0.0017828,0.0017812,0.0017834,0.0017338,0.0017346,0.001737,0.0017454,0.0017432,0.0017484,0.0017462,0.001752,0.0017548,0.0017422
658,0.002756,0.002758,0.002756,0.002752,0.002754,0.00273,0.002734,0.002736,0.002734,0.002734,0.0044,0.004398,0.004392,0.004392,0.00439,0.004366,0.004364,0.004374,0.00437,0.004368,0.001263,0.0012628,0.001261,0.001262,0.0012632,0.0012786,0.0012798,0.0012794,0.0012776,0.0012792,0.0012642,0.0012626,0.0012674,0.0012758,0.0012758,0.001281,0.0012812,0.001288,0.0012852,0.0012822
660,0.002782,0.002786,0.00278,0.002778,0.002778,0.00276,0.002762,0.002768,0.002762,0.002764,0.004214,0.00421,0.004206,0.004204,0.0042,0.004184,0.00418,0.004192,0.004186,0.00418,0.0008246,0.0008232,0.0008202,0.0008228,0.0008218,0.0008392,0.0008412,0.0008396,0.0008382,0.0008396,0.0008446,0.0008428,0.0008468,0.0008552,0.000854,0.0008648,0.0008624,0.0008698,0.0008652,0.0008632
662,0.002782,0.002784,0.00278,0.002776,0.002774,0.002768,0.002764,0.00277,0.002768,0.002762,0.004024,0.004022,0.004016,0.004014,0.004012,0.004002,0.004,0.004008,0.004,0.004,0.0004686,0.000469,0.0004648,0.000468,0.0004686,0.0004824,0.0004828,0.0004836,0.0004808,0.0004826,0.0005054,0.0004988,0.000506,0.0005096,0.0005108,0.0005186,0.0005132,0.0005236,0.0005178,0.0005194
664,0.00271,0.002714,0.00271,0.002706,0.002702,0.002706,0.002706,0.002708,0.002704,0.002704,0.003774,0.003772,0.003766,0.003764,0.003766,0.003768,0.003764,0.003766,0.00376,0.00376,0.0002386,0.0002378,0.0002348,0.000237,0.0002386,0.0002464,0.0002456,0.0002474,0.000244,0.0002456,0.0002756,0.0002824,0.0002838,0.0002854,0.0002856,0.0002926,0.0002814,0.0002922,0.0002918,0.0002982
666,0.00252,0.002526,0.002522,0.00252,0.002512,0.002524,0.002522,0.002528,0.002528,0.002524,0.003412,0.003412,0.003406,0.003402,0.003402,0.003416,0.00341,0.003414,0.003412,0.003404,0.00014722,0.00014588,0.0001444,0.00014598,0.00014644,0.00015056,0.00014982,0.0001496,0.000147,0.00014896,0.00018866,0.00019324,0.00019042,0.00019266,0.00019242,0.00019228,0.000186,0.00019498,0.00019892,0.0002034
668,0.002256,0.002256,0.002254,0.002254,0.00225,0.00227,0.002262,0.002268,0.002264,0.002264,0.002992,0.002988,0.002984,0.002982,0.002986,0.003004,0.002996,0.003,0.002996,0.002992,0.00012304,0.00012184,0.00011978,0.00012234,0.00012318,0.00012446,0.000123,0.00012262,0.0001224,0.00012418,0.00016662,0.00016266,0.00016104,0.00016652,0.00016326,0.00017062,0.0001594,0.00016158,0.00016968,0.00017814
670,0.0019408,0.0019454,0.0019434,0.0019478,0.0019324,0.00196,0.0019568,0.0019606,0.0019568,0.0019558,0.002532,0.00253,0.002532,0.00253,0.002532,0.002554,0.002544,0.002548,0.002546,0.002544,0.00011604,0.00011498,0.00011172,0.00011648,0.0001145,0.00011554,0.0001149,0.0001153,0.00011388,0.00011652,0.0001557,0.00015374,0.00015338,0.00015552,0.0001545,0.00016528,0.00014586,0.00015738,0.00016124,0.00016542
672,0.0016038,0.0016056,0.001607,0.0016076,0.0015962,0.0016204,0.0016184,0.0016226,0.001622,0.0016204,0.00206,0.002064,0.00206,0.002058,0.002062,0.002082,0.002078,0.002076,0.00208,0.002074,0.00011174,0.00011198,0.00010956,0.00011188,0.00010952,0.00011158,0.00011136,0.00011286,0.00011082,0.00011158,0.00015176,0.00015108,0.00014804,0.0001489,0.00015254,0.00015348,0.00014186,0.00015064,0.00015622,0.00015986
674,0.0012094,0.0012118,0.0012162,0.0012148,0.0012038,0.0012268,0.0012244,0.0012312,0.0012326,0.0012266,0.0015422,0.0015412,0.0015428,0.0015404,0.0015406,0.001564,0.001558,0.0015612,0.0015592,0.001559,0.0001087,0.00010746,0.00010566,0.00010766,0.00010596,0.00010744,0.00010622,0.00010802,0.0001063,0.00010786,0.00014926,0.00015028,0.0001405,0.00014256,0.00014016,0.00014932,0.0001304,0.00014272,0.00014714,0.00015724
676,0.0008582,0.0008644,0.0008634,0.0008616,0.0008534,0.0008708,0.0008702,0.0008768,0.0008778,0.0008758,0.0010898,0.0010904,0.0010898,0.0010856,0.0010876,0.0011128,0.0011086,0.0011072,0.0011068,0.0011052,0.00010678,0.0001032,0.00010088,0.0001048,0.00010218,0.00010368,0.0001027,0.00010338,0.00010348,0.00010404,0.00014544,0.00014364,0.00013368,0.00013868,0.00013874,0.00014298,0.00012506,0.0001418,0.00014124,0.0001539
678,0.0005466,0.0005548,0.0005548,0.0005542,0.0005456,0.0005658,0.0005564,0.0005694,0.0005628,0.0005662,0.0007002,0.0007044,0.0007018,0.0006984,0.0007014,0.0007204,0.0007178,0.0007178,0.0007186,0.0007192,0.00010314,0.0001008,0.00010002,0.00010192,0.0001007,0.00010092,0.00010096,0.00010084,0.00010006,0.0001013,0.00014408,0.00014272,0.00012872,0.0001355,0.00013368,0.00013614,0.00011934,0.00013436,0.00013702,0.00015116
680,0.0003126,0.000319,0.0003244,0.000323,0.0003146,0.0003336,0.0003198,0.0003316,0.0003272,0.000332,0.0004122,0.0004126,0.0004128,0.00041,0.0004154,0.0004278,0.000422,0.000424,0.0004254,0.0004266,0.00010192,9.78e-05,9.848e-05,0.00010042,9.772e-05,9.862e-05,9.864e-05,9.786e-05,9.706e-05,9.92e-05,0.00014136,0.00013984,0.00012664,0.00012836,0.00012712,0.00013018,0.00012008,0.00012842,0.00013624,0.00014642
682,0.00019598,0.000206,0.0002012,0.00019962,0.00018688,0.0002018,0.00019614,0.000201,0.0001979,0.00019976,0.000257,0.0002572,0.0002594,0.0002572,0.0002586,0.0002684,0.000258,0.000265,0.000263,0.0002658,9.914e-05,9.566e-05,9.572e-05,9.902e-05,9.628e-05,9.644e-05,9.87e-05,9.714e-05,9.598e-05,0.00010024,0.00013654,0.00014288,0.00012436,0.00012718,0.00012452,0.00013672,0.00011642,0.00012666,0.00013638,0.00014284
684,0.00015488,0.00015344,0.00015852,0.00015382,0.00014792,0.00015958,0.00015262,0.00015658,0.00015286,0.00015546,0.00019914,0.0002014,0.000202,0.000203,0.0002062,0.0002062,0.0002046,0.0002018,0.0002038,0.000205,9.88e-05,9.676e-05,9.602e-05,9.706e-05,9.424e-05,9.606e-05,9.67e-05,9.546e-05,9.578e-05,9.842e-05,0.00013532,0.00014004,0.00012976,0.00012718,0.00012546,0.0001274,0.00011922,0.0001254,0.00012972,0.00014554
686,0.00014364,0.00014394,0.00014856,0.00014572,0.00014082,0.0001461,0.00014102,0.00014364,0.00014218,0.00014454,0.00018226,0.00018034,0.00018552,0.00018496,0.00018698,0.00019012,0.00018496,0.00018552,0.00018496,0.00018754,9.532e-05,9.324e-05,9.344e-05,9.62e-05,9.208e-05,9.362e-05,9.316e-05,9.326e-05,9.424e-05,9.636e-05,0.000137,0.0001319,0.00012756,0.00012598,0.00012736,0.0001287,0.0001206,0.00012696,0.0001231,0.00013774
688,0.00013742,0.00014178,0.00014248,0.00013906,0.00012956,0.00013696,0.00013226,0.00013578,0.00013312,0.00013704,0.00016872,0.000168,0.00017546,0.00017584,0.00017962,0.00017816,0.00017312,0.00017474,0.00017078,0.00017714,9.222e-05,9.122e-05,9.056e-05,9.312e-05,8.904e-05,9.102e-05,9.134e-05,9.146e-05,9.156e-05,9.376e-05,0.00013352,0.00012714,0.00012806,0.00011868,0.0001243,0.00012706,0.00011802,0.00012688,0.00012468,0.00013788
690,0.00013162,0.00013528,0.00013788,0.00013276,0.00012646,0.00013552,0.0001277,0.00013052,0.00012368,0.00013344,0.00016024,0.00016182,0.00016338,0.00016976,0.0001676,0.00016918,0.0001667,0.00016562,0.0001599,0.00016632,8.992e-05,8.786e-05,8.982e-05,8.986e-05,8.592e-05,8.806e-05,8.836e-05,8.784e-05,8.942e-05,8.946e-05,0.00013006,0.00012812,0.00012414,0.00011596,0.00012214,0.00011716,0.00012136,0.00012272,0.00012094,0.00013172
692,0.0001255,0.00013204,0.00013004,0.00012684,0.00012792,0.00012506,0.00012086,0.00012358,0.00011998,0.00012556,0.00015498,0.00014962,0.00015966,0.00015904,0.00015862,0.00016064,0.00015448,0.00015772,0.00014964,0.00015486,8.68e-05,8.328e-05,8.636e-05,8.708e-05,8.344e-05,8.408e-05,8.506e-05,8.408e-05,8.708e-05,8.602e-05,0.00012644,0.00013008,0.00011934,0.0001081,0.00011828,0.00012338,0.00011724,0.00011612,0.00011606,0.00012834
694,0.00012084,0.00012442,0.00011808,0.0001216,0.00011746,0.0001182,0.000119,0.00011546,0.0001158,0.00011876,0.00013942,0.00013904,0.00014676,0.00014824,0.00014746,0.0001489,0.0001453,0.00014666,0.00014084,0.00014434,8.344e-05,8.074e-05,8.35e-05,8.312e-05,7.916e-05,8.038e-05,8.374e-05,8e-05,8.34e-05,8.398e-05,0.0001188,0.00011442,0.00011988,0.0001101,0.00011814,0.00011838,0.0001265,0.00011642,0.00011172,0.00012308
696,0.00011314,0.00011688,0.00011352,0.00011564,0.0001189,0.00011114,0.00011438,0.00011196,0.00010336,0.00011348,0.00013248,0.00013214,0.00013656,0.00014008,0.00013468,0.00014068,0.00014068,0.00013878,0.00013406,0.00013814,8.038e-05,7.754e-05,8.052e-05,8e-05,7.686e-05,7.768e-05,7.938e-05,7.686e-05,7.962e-05,8.148e-05,0.0001182,0.00011382,0.00011712,0.00010994,0.0001149,0.00011678,0.00012488,0.00011454,0.00011188,0.00011998
698,0.00010964,0.00011014,0.0001122,0.00010872,0.00011812,0.0001042,0.00010666,0.00010586,0.00010174,0.00011562,0.00012648,0.00012626,0.00012902,0.00012792,0.00012666,0.00013118,0.00012964,0.00013272,0.00012298,0.0001325,7.554e-05,7.288e-05,7.536e-05,7.65e-05,7.39e-05,7.446e-05,7.638e-05,7.534e-05,7.674e-05,7.646e-05,0.00010918,0.0001108,0.00011344,0.00010052,0.00011536,0.00011284,0.00011794,0.0001113,0.00011286,0.00011686
700,0.00010316,0.00010944,0.00010982,0.00010042,0.00010766,0.00010494,0.00010458,0.00010194,9.476e-05,0.00010452,0.00011602,0.00011534,0.00012016,0.00012006,0.0001225,0.00012328,0.00012398,0.00012482,0.00011424,0.00012572,7.088e-05,6.98e-05,7.308e-05,7.2e-05,6.826e-05,7.132e-05,7.158e-05,7.162e-05,7.216e-05,7.318e-05,0.00010146,0.0001061,0.00010902,0.00010016,0.00010712,0.00010554,0.00012166,0.00010672,0.00010564,0.00010792
702,0.00010456,0.00010678,0.00010036,9.834e-05,0.00010338,9.6e-05,9.99e-05,9.998e-05,8.864e-05,0.00010038,0.00010742,0.00010706,0.0001112,0.00011596,0.00011188,0.00011428,0.00011506,0.00011632,0.00011068,0.0001138,6.772e-05,6.674e-05,7.098e-05,6.968e-05,6.41e-05,6.668e-05,7.036e-05,6.726e-05,6.79e-05,6.89e-05,9.662e-05,9.888e-05,0.00011286,9.412e-05,0.00010284,0.00010298,0.00012332,9.752e-05,0.0001026,0.00010362
704,0.00010108,9.908e-05,9.576e-05,9.034e-05,9.896e-05,9.43e-05,9.414e-05,9.106e-05,8.368e-05,0.00010032,0.0001041,0.00010222,0.00010718,0.0001109,0.00010558,0.00010782,0.0001093,0.00010878,0.0001023,0.0001127,6.194e-05,6.526e-05,6.706e-05,6.402e-05,6.218e-05,6.38e-05,6.556e-05,6.31e-05,6.394e-05,6.526e-05,9.222e-05,9.632e-05,0.00010472,9.796e-05,9.904e-05,0.0001008,0.000123,9.636e-05,0.00010072,0.00010354
706,9.808e-05,9.274e-05,9.148e-05,8.708e-05,9.766e-05,8.8e-05,8.948e-05,8.854e-05,7.488e-05,9.732e-05,9.874e-05,9.728e-05,0.0001023,0.00010658,9.944e-05,0.000103,0.000102,0.00010358,9.484e-05,0.00010504,5.772e-05,5.946e-05,6.424e-05,5.878e-05,5.816e-05,6.18e-05,6.244e-05,6.194e-05,6.132e-05,5.912e-05,8.946e-05,8.846e-05,0.00010598,9.824e-05,9.274e-05,9.396e-05,0.00011896,9.518e-05,9.612e-05,0.00010328
708,9.712e-05,9.062e-05,8.61e-05,8.36e-05,9.342e-05,8.022e-05,8.434e-05,8.382e-05,7.372e-05,9.256e-05,9.286e-05,9.032e-05,9.768e-05,0.0001064,9.906e-05,9.988e-05,0.00010144,0.00010134,9.498e-05,0.00010044,5.684e-05,5.856e-05,6.158e-05,5.63e-05,5.716e-05,5.63e-05,6.102e-05,5.822e-05,6.008e-05,5.578e-05,8.926e-05,8.57e-05,0.00010928,9.168e-05,9.658e-05,9.282e-05,0.00011854,9.702e-05,9.616e-05,9.11e-05
710,8.822e-05,9.024e-05,8.028e-05,7.714e-05,9.156e-05,8.33e-05,9.038e-05,8.114e-05,8.302e-05,8.624e-05,9.104e-05,8.764e-05,9.956e-05,9.546e-05,9.13e-05,9.326e-05,0.00010178,9.88e-05,9.622e-05,9.778e-05,5.098e-05,5.478e-05,5.732e-05,5.35e-05,5.438e-05,5.344e-05,5.654e-05,5.446e-05,5.64e-05,5.626e-05,8.382e-05,8.006e-05,9.808e-05,9.35e-05,9.856e-05,9.36e-05,0.00011468,8.368e-05,9.454e-05,7.582e-05
712,8.66e-05,8.904e-05,7.914e-05,7.606e-05,9.108e-05,7.37e-05,8.138e-05,8.244e-05,7.066e-05,8.662e-05,8.874e-05,8.514e-05,9.106e-05,9.134e-05,8.874e-05,9.004e-05,9.392e-05,9.392e-05,8.772e-05,9.52e-05,4.79e-05,5.182e-05,5.304e-05,4.99e-05,5.156e-05,5.38e-05,5.59e-05,5.226e-05,5.226e-05,5.406e-05,8.336e-05,8.11e-05,9.572e-05,9.246e-05,8.838e-05,8.826e-05,0.00011358,8.426e-05,8.918e-05,7.538e-05
714,8.174e-05,9.178e-05,8.052e-05,8.112e-05,9.068e-05,7.242e-05,8.136e-05,8.362e-05,6.626e-05,8.218e-05,8.318e-05,8.36e-05,8.684e-05,9.382e-05,8.652e-05,9.018e-05,9.366e-05,8.956e-05,8.68e-05,8.828e-05,4.556e-05,5.004e-05,5.19e-05,4.682e-05,4.804e-05,5.18e-05,5.326e-05,4.99e-05,5.024e-05,4.74e-05,7.752e-05,7.612e-05,0.00010174,8.198e-05,8.438e-05,8.472e-05,0.00011402,8.564e-05,8.876e-05,7.47e-05
716,7.71e-05,7.868e-05,7.814e-05,7.338e-05,8.346e-05,7.196e-05,7.866e-05,7.894e-05,6.74e-05,7.6e-05,8.376e-05,7.818e-05,8.636e-05,8.618e-05,8.216e-05,8.826e-05,8.932e-05,8.858e-05,8.728e-05,8.822e-05,4.024e-05,4.96e-05,4.924e-05,4.396e-05,4.538e-05,4.94e-05,4.766e-05,4.652e-05,4.806e-05,4.418e-05,7.086e-05,7.452e-05,8.688e-05,7.982e-05,7.312e-05,8.078e-05,0.0001109,7.84e-05,8.658e-05,7.516e-05
718,8.324e-05,7.682e-05,7.328e-05,6.106e-05,7.792e-05,5.972e-05,7.362e-05,7.36e-05,6.48e-05,8.046e-05,7.738e-05,7.846e-05,8.24e-05,8.394e-05,8.266e-05,8.536e-05,8.814e-05,8.486e-05,7.458e-05,9.142e-05,4.014e-05,4.412e-05,4.396e-05,3.69e-05,4.168e-05,4.548e-05,4.61e-05,4.562e-05,4.52e-05,4.148e-05,7.016e-05,6.436e-05,8.518e-05,8.688e-05,7.184e-05,8.236e-05,0.00010422,8.106e-05,7.794e-05,6.004e-05
720,7.512e-05,7.43e-05,6.978e-05,5.496e-05,7.714e-05,5.79e-05,6.426e-05,7.126e-05,6.294e-05,6.536e-05,6.996e-05,7.694e-05,7.892e-05,7.964e-05,7.416e-05,8.06e-05,8.02e-05,8.068e-05,7.512e-05,8.346e-05,3.82e-05,4.298e-05,4.29e-05,3.456e-05,4.314e-05,4.386e-05,4.528e-05,4.34e-05,4.312e-05,3.902e-05,7.512e-05,6.886e-05,7.984e-05,8.554e-05,6.732e-05,7.418e-05,9.352e-05,7.16e-05,7.786e-05,6.166e-05
722,7.464e-05,6.896e-05,6.558e-05,5.286e-05,6.522e-05,4.83e-05,6.714e-05,6.644e-05,5.63e-05,6.74e-05,6.706e-05,7.342e-05,7.324e-05,7.758e-05,6.964e-05,7.316e-05,7.448e-05,7.752e-05,7.158e-05,7.8e-05,3.448e-05,4.038e-05,4.08e-05,3.598e-05,4.328e-05,4.36e-05,4.196e-05,4.318e-05,4.208e-05,3.76e-05,6.21e-05,6.556e-05,7.952e-05,7.99e-05,6.862e-05,8.178e-05,8.982e-05,6.548e-05,7.524e-05,5.59e-05
724,6.888e-05,7.084e-05,6.55e-05,4.866e-05,5.942e-05,5.202e-05,6.26e-05,6.474e-05,4.974e-05,6.036e-05,6.444e-05,7.36e-05,6.75e-05,7.518e-05,6.86e-05,6.902e-05,7.268e-05,7.19e-05,6.558e-05,7.25e-05,3.328e-05,3.802e-05,3.878e-05,3.308e-05,4.07e-05,4.292e-05,4.04e-05,4.328e-05,4.058e-05,3.534e-05,5.314e-05,6.48e-05,7.55e-05,8.432e-05,6.46e-05,7.418e-05,8.128e-05,6.838e-05,6.744e-05,4.732e-05
726,5.966e-05,6.24e-05,5.12e-05,4.508e-05,5.526e-05,4.734e-05,6.484e-05,6.724e-05,5.476e-05,5.302e-05,6.39e-05,6.832e-05,6.312e-05,7.618e-05,6.68e-05,5.958e-05,7.126e-05,6.364e-05,6.764e-05,6.552e-05,3.288e-05,4.092e-05,3.71e-05,3.3e-05,3.77e-05,4.32e-05,4.1e-05,3.936e-05,4.116e-05,3.1e-05,5.926e-05,6.332e-05,6.11e-05,7.52e-05,7.174e-05,7.146e-05,8.278e-05,5.97e-05,6.706e-05,4.59e-05
728,4.954e-05,5.244e-05,4.852e-05,3.774e-05,5.536e-05,4.758e-05,5.748e-05,6.38e-05,5.582e-05,5.61e-05,5.874e-05,6.554e-05,6.214e-05,6.236e-05,6.08e-05,6.462e-05,6.476e-05,6.498e-05,6.334e-05,7e-05,3.23e-05,3.874e-05,3.822e-05,3.492e-05,4.13e-05,4.218e-05,4.142e-05,4.254e-05,3.846e-05,3.12e-05,6.138e-05,7.104e-05,5.79e-05,7.552e-05,6.15e-05,6.77e-05,7.098e-05,6.418e-05,5.788e-05,4.586e-05
730,5.39e-05,5.304e-05,4.624e-05,4.84e-05,5.272e-05,3.812e-05,5.72e-05,5.906e-05,4.98e-05,4.92e-05,6.09e-05,6.318e-05,5.848e-05,6.034e-05,6.364e-05,6.75e-05,6.072e-05,6.544e-05,6.3e-05,6.176e-05,3.216e-05,3.856e-05,3.786e-05,3.418e-05,3.996e-05,4.368e-05,3.798e-05,4.428e-05,3.86e-05,2.986e-05,5.694e-05,6.34e-05,5.914e-05,7.168e-05,6.05e-05,7.044e-05,6.622e-05,6.77e-05,5.794e-05,5.158e-05
732,5.07e-05,5.226e-05,3.944e-05,3.42e-05,4.196e-05,3.854e-05,5.338e-05,5.936e-05,4.736e-05,3.58e-05,5.784e-05,5.896e-05,6.226e-05,6.668e-05,6.636e-05,6.844e-05,6.202e-05,6.382e-05,6.506e-05,6.062e-05,3.24e-05,3.792e-05,3.692e-05,3.396e-05,3.774e-05,4.238e-05,4.114e-05,4.27e-05,3.736e-05,3e-05,5.768e-05,5.994e-05,5.672e-05,6.198e-05,6.462e-05,8.128e-05,6.51e-05,6.348e-05,6.528e-05,5.008e-05
734,4.14e-05,3.876e-05,4.354e-05,3.342e-05,3.706e-05,4.1e-05,4.456e-05,5.748e-05,4.224e-05,4.146e-05,5.43e-05,5.872e-05,7.088e-05,6.352e-05,6.808e-05,6.474e-05,6.256e-05,6.674e-05,6.038e-05,5.796e-05,3.234e-05,3.718e-05,3.578e-05,3.466e-05,3.644e-05,4.178e-05,3.808e-05,4.046e-05,3.58e-05,3.182e-05,6.12e-05,5.072e-05,5.164e-05,5.914e-05,5.212e-05,7.934e-05,5.94e-05,5.364e-05,5.99e-05,5.078e-05
736,3.522e-05,2.798e-05,3.534e-05,2.944e-05,2.388e-05,3.306e-05,3.312e-05,4.616e-05,4.258e-05,3.262e-05,5.298e-05,5.592e-05,5.94e-05,5.636e-05,6.446e-05,6.12e-05,5.268e-05,5.89e-05,6.124e-05,4.372e-05,2.974e-05,3.406e-05,2.996e-05,3.204e-05,3.118e-05,4.178e-05,3.186e-05,3.666e-05,3.23e-05,3.464e-05,5.296e-05,5.548e-05,4.368e-05,7.516e-05,4.22e-05,6.958e-05,3.972e-05,5.258e-05,5.152e-05,5.256e-05
738,3.67e-05,2.214e-05,3.338e-05,2.536e-05,2.014e-05,3.002e-05,3.224e-05,5.15e-05,2.732e-05,3.072e-05,4.916e-05,5.462e-05,5.276e-05,5.698e-05,6.176e-05,5.94e-05,5.61e-05,4.996e-05,5.638e-05,4.8e-05,2.464e-05,3.358e-05,2.474e-05,3.07e-05,3.162e-05,3.588e-05,2.954e-05,3.516e-05,3.004e-05,2.896e-05,6.266e-05,5.768e-05,4.406e-05,5.696e-05,3.648e-05,6.64e-05,3.012e-05,5.88e-05,5.574e-05,4.944e-05
740,2.42e-05,1.5108e-05,2.508e-05,1.7158e-05,1.1584e-05,2.626e-05,2.182e-05,3.732e-05,2.354e-05,1.9364e-05,4.722e-05,4.944e-05,5.4e-05,4.856e-05,5.854e-05,5.342e-05,5.51e-05,5.464e-05,5.342e-05,4.534e-05,2.32e-05,2.626e-05,2.306e-05,2.486e-05,2.768e-05,3.518e-05,2.184e-05,3.19e-05,2.956e-05,2.268e-05,6e-05,4.698e-05,1.7274e-05,4.952e-05,3.592e-05,6.252e-05,2.946e-05,4.446e-05,5.188e-05,4.98e-05
742,2.416e-05,2.08e-05,2.186e-05,1.5426e-05,1.7586e-06,2.01e-05,1.8458e-05,3.64e-05,2.052e-05,2.256e-05,4.814e-05,5.654e-05,5.2e-05,5.276e-05,6.168e-05,5.594e-05,5.034e-05,5.254e-05,5.128e-05,4.376e-05,2.234e-05,2.372e-05,1.901e-05,2.748e-05,2.564e-05,3.008e-05,1.8374e-05,3.252e-05,2.552e-05,2.556e-05,4.994e-05,3.278e-05,2.848e-05,3.78e-05,2.508e-05,5.652e-05,1.9742e-05,5.082e-05,4.51e-05,4.578e-05
744,2.278e-05,6.032e-06,2.752e-06,1.8442e-05,0,2.588e-05,1.541e-05,3.508e-05,1.4702e-05,1.5906e-05,5.306e-05,6.35e-05,4.468e-05,4.984e-05,6.016e-05,6.516e-05,4.792e-05,5.132e-05,6.454e-05,3.66e-05,2.142e-05,2.148e-05,2.354e-05,2.366e-05,2.37e-05,2.722e-05,1.981e-05,2.352e-05,2.686e-05,2.668e-05,4.58e-05,3.124e-05,3.184e-05,2.036e-05,4.682e-05,5.964e-05,7.15e-06,4.1e-05,5.198e-05,4.132e-05
746,7.382e-06,1.3868e-05,7.488e-06,1.6258e-05,0,2.812e-05,1.3678e-05,2.68e-05,1.1024e-05,1.2728e-05,5.3e-05,5.428e-05,4.294e-05,5.496e-05,6.022e-05,6.164e-05,4.61e-05,5.084e-05,6.028e-05,3.418e-05,1.9932e-05,1.6718e-05,1.5338e-05,2.33e-05,2.362e-05,2.474e-05,1.6016e-05,2.61e-05,2.062e-05,2.374e-05,4.946e-05,2.558e-05,2.422e-05,2.482e-05,2.378e-05,5.64e-05,3.972e-06,3.534e-05,3.944e-05,3.874e-05
748,5.702e-06,1.0326e-05,0,2.082e-05,9.582e-07,2.6e-05,1.109e-05,2.408e-05,1.6622e-05,1.1332e-05,5.572e-05,6.436e-05,5.224e-05,5.504e-05,6.21e-05,5.58e-05,3.79e-05,5.074e-05,5.508e-05,3.64e-05,2.002e-05,1.9714e-05,1.0158e-05,2.06e-05,2.064e-05,2.706e-05,1.3852e-05,2.232e-05,1.824e-05,2.612e-05,4.652e-05,3.386e-05,1.6238e-05,1.4874e-05,2.62e-05,5.382e-05,1.2104e-06,3.554e-05,3.68e-05,5.388e-05
750,9.262e-06,2.564e-06,1.9296e-05,2.306e-05,5.928e-07,2.336e-05,2.9e-06,2.508e-05,1.0806e-05,7.098e-06,4.738e-05,6.494e-05,5.704e-05,5.406e-05,6.448e-05,6.792e-05,4.022e-05,4.544e-05,5.958e-05,2.444e-05,1.9178e-05,1.9372e-05,1.116e-05,1.86e-05,2.354e-05,2.072e-05,1.5074e-05,2.136e-05,1.835e-05,2.504e-05,5.35e-05,3.184e-05,2.216e-05,6.258e-06,2.922e-05,4.776e-05,0,3.576e-05,4.622e-05,5.642e-05
752,8.986e-06,2.212e-07,2.094e-05,9.404e-06,0,4.178e-05,5.194e-07,1.2736e-05,5.956e-06,1.7198e-05,5.862e-05,6.926e-05,5.494e-05,6.298e-05,7.338e-05,6.276e-05,4.602e-05,5.358e-05,6.334e-05,2.576e-05,1.9446e-05,1.7824e-05,1.8826e-05,2.158e-05,2.102e-05,2.156e-05,1.3496e-05,2.16e-05,1.881e-05,2.942e-05,5.594e-05,3.414e-05,1.8548e-05,2.034e-05,1.8164e-05,3.108e-05,8.604e-06,3.472e-05,4.59e-05,2.462e-05
754,1.2072e-05,2.412e-06,1.388e-05,2.276e-05,0,2.978e-05,6.918e-06,3.29e-06,0,1.8192e-05,5.564e-05,6.932e-05,5.7e-05,5.85e-05,6.632e-05,6.13e-05,4.312e-05,5.68e-05,6.032e-05,4.026e-05,1.7362e-05,1.54e-05,1.5346e-05,2.034e-05,2.002e-05,2.488e-05,9.918e-06,1.955e-05,1.5564e-05,2.978e-05,4.576e-05,2.774e-05,5.248e-06,2.042e-05,1.5064e-05,4.87e-05,0,3.116e-05,4.434e-05,4.098e-05
756,3.436e-06,4.736e-06,1.5526e-05,2.808e-05,0,3.85e-05,4.636e-06,9.744e-06,5.222e-06,8.288e-06,5.122e-05,7.164e-05,5.874e-05,6.858e-05,7.128e-05,7.19e-05,3.886e-05,5.524e-05,6.17e-05,3.6e-05,2.468e-05,1.8738e-05,1.8434e-05,2.09e-05,2.024e-05,2.02e-05,1.0202e-05,1.9896e-05,1.6074e-05,3.184e-05,4.55e-05,2.682e-05,2.464e-05,7.838e-06,2.494e-05,5.22e-05,1.3826e-06,2.764e-05,3.376e-05,5.68e-05
758,3.924e-06,1.5726e-06,1.6454e-05,2.744e-05,0,4.144e-05,0,1.2274e-05,2.844e-05,6.29e-06,5.572e-05,7.23e-05,6.638e-05,5.33e-05,6.99e-05,6.102e-05,4.86e-05,6.342e-05,6.218e-05,2.724e-05,2.092e-05,1.837e-05,1.733e-05,2.348e-05,1.9648e-05,2.144e-05,1.174e-05,1.9554e-05,1.9822e-05,3.338e-05,5.396e-05,3.218e-05,3.216e-05,0,3.218e-05,5.28e-05,1.0102e-06,2.028e-05,2.028e-05,6.096e-05
760,1.0884e-05,1.7702e-06,1.338e-05,3.436e-05,0,4.342e-05,2.804e-07,8.318e-06,1.5412e-05,1.1702e-05,5.398e-05,7.348e-05,6.216e-05,4.82e-05,6.742e-05,6.598e-05,5.344e-05,5.884e-05,6.498e-05,2.736e-05,1.7302e-05,1.4086e-05,2.058e-05,2.406e-05,1.5736e-05,1.7264e-05,1.3036e-05,1.7614e-05,2.402e-05,3.714e-05,4.396e-05,5.186e-05,2.636e-05,8.262e-06,1.3864e-05,5.092e-05,1.6356e-05,3.672e-05,1.4512e-05,5.174e-05
762,4.536e-06,2.202e-05,2.794e-05,4.14e-05,0,4.446e-05,3.794e-06,1.1384e-05,8.268e-06,8.45e-06,6.526e-05,8.142e-05,7.504e-05,6.028e-05,7.112e-05,6.476e-05,5.202e-05,5.448e-05,7.352e-05,2.454e-05,1.9054e-05,2.114e-05,2.026e-05,1.984e-05,2.132e-05,1.9198e-05,1.1894e-05,1.7926e-05,2.18e-05,3.496e-05,5.336e-05,4.212e-05,2.494e-05,1.2976e-05,3.274e-05,5.046e-05,1.5116e-05,2.446e-05,3.786e-05,3.876e-05
764,1.3704e-05,8.43e-06,2.8e-05,1.8196e-05,3.662e-06,4.016e-05,3.584e-06,0,1.1834e-05,2.064e-05,6.336e-05,7.846e-05,6.932e-05,5.298e-05,6.798e-05,6.316e-05,5.934e-05,5.792e-05,6.068e-05,3.06e-05,2.8e-05,2.356e-05,2.096e-05,1.7994e-05,2.008e-05,1.7328e-05,1.514e-05,2.24e-05,2.43e-05,3.768e-05,6.226e-05,5.646e-05,4.01e-05,3.562e-05,4.552e-05,5.756e-05,1.0562e-05,3.556e-05,4.066e-05,5.95e-05
766,1.3788e-05,7.536e-06,1.8106e-05,3.584e-05,3.034e-06,5.162e-05,2.968e-06,0,1.2142e-05,2.132e-05,6.09e-05,7.89e-05,6.812e-05,4.918e-05,6.75e-05,6.584e-05,6.182e-05,4.904e-05,5.966e-05,3.306e-05,2.542e-05,2.556e-05,2.862e-05,1.9798e-05,2.47e-05,1.926e-05,1.3262e-05,2.68e-05,2.896e-05,4.14e-05,4.55e-05,5.95e-05,4.198e-05,5.366e-05,3.906e-05,5.692e-05,2.06e-05,4.274e-05,3.584e-05,6.168e-05
768,1.287e-06,1.9038e-05,2.17e-05,2.85e-05,8.448e-06,4.746e-05,5.586e-06,4.704e-06,1.4722e-05,2.022e-05,6.002e-05,6.694e-05,7.968e-05,4.148e-05,6.246e-05,6.388e-05,4.956e-05,3.622e-05,5.886e-05,3.432e-05,2.988e-05,2.574e-05,2.102e-05,1.7236e-05,2.534e-05,1.7294e-05,1.476e-05,2.53e-05,2.422e-05,3.45e-05,6.612e-05,4.936e-05,5.532e-05,4.322e-05,3.656e-05,5.382e-05,2.416e-05,8.58e-06,4.632e-05,6.142e-05
770,1.0942e-05,1.9862e-05,5.53e-05,1.0006e-05,3.396e-05,6.502e-05,2.542e-05,0,3.16e-05,2.764e-05,6.394e-05,7.698e-05,7.53e-05,4.418e-05,6.268e-05,5.072e-05,4.26e-05,4.276e-05,5.146e-05,4.656e-05,2.408e-05,2.278e-05,2.832e-05,1.8298e-05,2.432e-05,2.64e-05,1.4502e-05,2.172e-05,2.3e-05,3.824e-05,5.526e-05,6.29e-05,5.624e-05,4.248e-05,4.398e-05,4.016e-05,3.27e-05,1.6346e-05,1.2004e-05,5.382e-05
772,1.2276e-05,2.184e-05,3.442e-05,2.462e-05,2.884e-05,6.396e-05,2.498e-05,0,3.148e-05,2.794e-05,5.65e-05,6.43e-05,6.868e-05,4.148e-05,5.684e-05,7.58e-05,6.224e-05,4.286e-05,5.336e-05,3.966e-05,2.462e-05,1.9132e-05,2.758e-05,1.5094e-05,2.664e-05,1.4776e-05,1.0066e-05,2.582e-05,2.516e-05,3.52e-05,5.384e-05,4.316e-05,8.282e-05,5.384e-05,2.434e-05,3.316e-05,4.174e-05,3.57e-05,3.316e-05,6.186e-05
774,2.586e-06,3.922e-05,3.456e-05,3.882e-05,3.972e-05,7.502e-05,2.69e-05,0,2.084e-05,3.354e-05,6.454e-05,5.762e-05,6.874e-05,4.544e-05,5.528e-05,6.71e-05,6.348e-05,3.988e-05,6.28e-05,3.754e-05,2.696e-05,2.364e-05,2.932e-05,1.6584e-05,2.822e-05,1.3604e-05,1.291e-05,2.344e-05,2.39e-05,2.998e-05,5.192e-05,3.228e-05,0.00010488,4.612e-05,3.072e-05,6.216e-05,7.12e-05,4.9e-05,5.082e-05,4.964e-05
776,9.112e-06,5.616e-05,4.868e-05,2.33e-05,4.234e-05,7.826e-05,4.68e-05,0,4.99e-05,3.424e-05,5.182e-05,4.584e-05,6.26e-05,3.83e-05,3.752e-05,6.422e-05,4.82e-05,3.546e-05,4.24e-05,3.274e-05,2.708e-05,3.322e-05,3.646e-05,1.0204e-05,2.118e-05,7.46e-06,2.084e-05,2.772e-05,2.37e-05,3.196e-05,3.448e-05,7.378e-05,9.862e-05,5.302e-05,7.23e-05,4.504e-05,5.884e-05,2.376e-05,2.912e-05,7.62e-05
778,1.5172e-05,5.676e-05,5.632e-05,1.604e-05,4.984e-05,4.75e-05,3.52e-05,2.548e-06,2.418e-05,5.416e-05,5.992e-05,5.632e-05,6.976e-05,2.75e-05,3.276e-05,6.254e-05,6.222e-05,2.096e-05,2.784e-05,4.552e-05,2.736e-05,2.298e-05,3.37e-05,1.4522e-05,1.9884e-05,1.0156e-05,2.09e-05,2.032e-05,2.522e-05,3.068e-05,4.59e-05,6.826e-05,8.892e-05,7.114e-05,6.54e-05,6.008e-05,8.926e-05,3.986e-05,1.9666e-05,9.038e-05
780,1.668e-05,5.696e-05,4.396e-05,3.812e-05,7.646e-05,5.978e-05,4.536e-05,8.692e-06,2.798e-05,3.942e-05,5.86e-05,3.536e-05,7.43e-05,2.832e-05,4.534e-05,6.58e-05,5.728e-05,1.6366e-05,3.028e-05,5.68e-05,3.502e-05,3.228e-05,3.348e-05,9.726e-06,2.58e-05,1.7832e-05,2.966e-05,3.076e-05,2.664e-05,2.542e-05,6.308e-05,6.71e-05,0.00010724,6.624e-05,8.4e-05,8.446e-05,0.00011336,2.806e-05,7.464e-05,8.586e-05
