Wavelength [nm],Background (Mel),Modulation (Mel),Background (LMS),Modulation (LMS)380,7.166e-06,9.464e-06,1.4608e-05,2.266e-07,5.826e-07,5.096e-06,3.056e-06,2.042e-05,1.5646e-05,7.928e-06,1.19e-05,9.316e-06,7.82e-06,6.452e-06,1.1638e-05,1.0044e-05,1.0346e-05,9.832e-06,1.4828e-05,1.0274e-05,2.84e-06,1.1262e-06,5.87e-06,3.51e-06,4.696e-06,3.886e-06,3.382e-06,5.208e-06,6.042e-06,2.434e-06,2.29e-05,2.252e-05,2.272e-05,1.4576e-05,1.4276e-05,1.2284e-05,2.304e-05,1.408e-05,2.81e-05,1.8972e-05
382,3.882e-06,6.598e-06,8.498e-06,3.56e-06,5.42e-06,3.902e-06,6.92e-06,1.576e-05,1.468e-05,5.664e-06,1.2806e-05,9.34e-06,7.262e-06,9.356e-06,1.1144e-05,1.0494e-05,1.0906e-05,9.834e-06,1.3712e-05,9.17e-06,3.386e-06,1.6764e-07,4.888e-06,2.784e-06,3.276e-06,5.414e-06,5.224e-06,3.51e-06,5.44e-06,3.4e-06,2.808e-05,2.546e-05,1.7532e-05,2.482e-05,0,1.5728e-05,1.84e-05,1.0218e-05,1.7812e-05,1.6452e-05
384,6.218e-06,6.062e-06,1.4894e-05,4.834e-06,1.4462e-06,7.12e-06,7.148e-06,1.3832e-05,1.2376e-05,5.742e-06,1.1244e-05,6.612e-06,7.282e-06,6.914e-06,1.2178e-05,8.424e-06,1.1536e-05,6.828e-06,1.3214e-05,1.092e-05,3.166e-06,1.3158e-06,5.738e-06,2.738e-06,3.334e-06,4.99e-06,5.362e-06,4.346e-06,5.016e-06,3.624e-06,2.198e-05,2.042e-05,1.5724e-05,1.7852e-05,3.37e-06,1.6998e-05,1.9738e-05,1.614e-05,2.072e-05,1.3888e-05
386,9.28e-06,2.118e-06,1.2232e-05,0,3.034e-06,6.334e-06,9.528e-06,1.379e-05,1.3306e-05,6.536e-06,9.898e-06,8.468e-06,3.71e-06,8.04e-06,1.2492e-05,8.234e-06,1.4122e-05,8.358e-06,1.2856e-05,6.212e-06,3.328e-06,1.9054e-06,6.116e-06,3.63e-06,2.708e-06,5.014e-06,4.652e-06,4.006e-06,5.298e-06,2.71e-06,2.434e-05,2.414e-05,1.3308e-05,2.354e-05,7.78e-06,1.8902e-05,2.076e-05,1.3344e-05,2.078e-05,1.215e-05
388,7.404e-06,2.24e-06,1.274e-05,0,3.846e-06,6.254e-06,1.0962e-05,1.0532e-05,1.304e-05,5.34e-06,1.074e-05,9.808e-06,5.588e-06,8.118e-06,1.0504e-05,8.63e-06,1.238e-05,1.004e-05,1.1196e-05,8.622e-06,4.542e-06,1.513e-06,4.256e-06,3.982e-06,3.02e-06,5.478e-06,4.506e-06,4.428e-06,5.38e-06,3.36e-06,2.768e-05,2.062e-05,1.5756e-05,2.378e-05,1.166e-06,1.534e-05,2.036e-05,1.573e-05,2.114e-05,1.0882e-05
390,8.52e-06,3.254e-06,1.2244e-05,0,0,7.288e-06,9.554e-06,1.1512e-05,7.88e-06,4.918e-06,1.1324e-05,8.07e-06,7.718e-06,7.678e-06,9.198e-06,9.366e-06,9.646e-06,8.348e-06,1.138e-05,7.944e-06,4.612e-06,1.6022e-06,4.208e-06,3.656e-06,3.12e-06,5.514e-06,5.19e-06,4.514e-06,5.374e-06,4.702e-06,2.526e-05,1.9948e-05,1.2808e-05,2.208e-05,7.436e-06,1.3938e-05,1.6678e-05,1.6354e-05,2.162e-05,1.3878e-05
392,6.882e-06,3.772e-06,1.2334e-05,0,0,7.168e-06,6.628e-06,1.259e-05,7.722e-06,7.314e-06,1.1432e-05,1.0062e-05,8.362e-06,7.678e-06,9.186e-06,8.624e-06,1.0682e-05,7.606e-06,1.041e-05,7.748e-06,3.994e-06,2.938e-06,4.822e-06,4.026e-06,2.896e-06,4.792e-06,5.134e-06,4.744e-06,5.39e-06,4.358e-06,2.048e-05,1.8968e-05,1.2858e-05,2.51e-05,9.564e-06,1.756e-05,9.218e-06,1.6118e-05,1.8704e-05,1.1328e-05
394,7.48e-06,6.386e-06,1.1264e-05,0,2.236e-06,3.436e-06,1.1532e-05,1.1042e-05,9.23e-06,4.526e-06,8.73e-06,1.0188e-05,9.37e-06,7.008e-06,1.1624e-05,8.292e-06,1.2728e-05,9.238e-06,1.0762e-05,1.0106e-05,4.486e-06,8.562e-07,3.036e-06,3.632e-06,3.12e-06,5.724e-06,3.912e-06,4.38e-06,4.31e-06,4.1e-06,2.018e-05,2.784e-05,1.5666e-05,2.098e-05,6.906e-06,1.6318e-05,1.1616e-05,1.3782e-05,1.5366e-05,1.0014e-05
396,1.0682e-05,4.61e-06,1.5972e-05,0,9.13e-07,7.3e-06,9.376e-06,9.606e-06,5.55e-06,2.872e-06,8.924e-06,8.872e-06,8.858e-06,5.338e-06,7.948e-06,7.624e-06,9.326e-06,8.52e-06,7.508e-06,8.138e-06,5.03e-06,2.218e-06,4.816e-06,3.938e-06,4.118e-06,5.41e-06,5.326e-06,4.328e-06,4.514e-06,5.608e-06,1.9094e-05,2.526e-05,7.532e-06,2.102e-05,3.47e-07,1.1326e-05,1.6674e-05,9.748e-06,1.3694e-05,1.2208e-05
398,4.144e-06,8.754e-07,9.664e-06,4.118e-07,2.876e-07,7.824e-06,1.0548e-05,9.206e-06,5.462e-06,4.75e-06,1.0142e-05,7.628e-06,7.602e-06,7.896e-06,9.458e-06,7.778e-06,1.231e-05,8.372e-06,9.114e-06,7.342e-06,3.676e-06,3.268e-06,3.986e-06,3.948e-06,4.698e-06,5.05e-06,5.608e-06,3.672e-06,4.36e-06,4.616e-06,1.8296e-05,2.476e-05,1.0382e-05,1.4864e-05,3.502e-07,1.7062e-05,9.568e-06,9.49e-06,1.3522e-05,8.644e-06
400,4.558e-06,2.06e-06,8.188e-06,1.867e-06,1.8404e-06,1.0162e-05,1.3168e-05,8.86e-06,8.114e-06,4.128e-06,1.0488e-05,8.418e-06,7.676e-06,6.742e-06,1.1264e-05,1.0714e-05,1.1724e-05,9.37e-06,9.084e-06,7.29e-06,4.416e-06,1.5682e-06,2.25e-06,3.804e-06,3.474e-06,5.71e-06,4.996e-06,3.818e-06,3.624e-06,4.364e-06,1.556e-05,1.7406e-05,9.288e-06,1.8216e-05,1.401e-06,1.2586e-05,1.3714e-05,9.188e-06,1.596e-05,8.318e-06
402,5.756e-06,1.447e-06,7.194e-06,7.398e-07,2.634e-06,1.0314e-05,1.2368e-05,6.352e-06,5.178e-06,2.11e-06,9.144e-06,7.104e-06,9.81e-06,6.604e-06,9.208e-06,8.69e-06,9.444e-06,9.068e-06,7.478e-06,8.008e-06,3.894e-06,1.9594e-06,2.51e-06,3.742e-06,3.302e-06,5.854e-06,5.242e-06,4.174e-06,3.42e-06,4.912e-06,1.6838e-05,1.609e-05,8.502e-06,1.8498e-05,3.778e-06,1.6778e-05,1.28e-05,1.1282e-05,9.61e-06,7.362e-06
404,4.836e-06,2.998e-06,5.508e-06,7.136e-07,3.374e-06,1.0468e-05,1.153e-05,3.76e-06,6.068e-06,3.742e-06,1.038e-05,7.324e-06,9.462e-06,5.78e-06,7.292e-06,9.696e-06,8.956e-06,8.592e-06,7.12e-06,8.38e-06,4.164e-06,2.524e-06,2.786e-06,3.484e-06,3.034e-06,6.084e-06,5.068e-06,4.158e-06,3.326e-06,4.34e-06,1.5792e-05,2.112e-05,1.0012e-05,1.9346e-05,6.288e-06,1.1084e-05,8.42e-06,1.1188e-05,8.188e-06,3.39e-06
406,5.138e-06,3.132e-06,8.51e-06,2.538e-07,2.238e-06,8.608e-06,1.1372e-05,3.412e-06,5.888e-06,3.778e-06,1.0274e-05,9.408e-06,8.232e-06,6.112e-06,8.694e-06,1.0092e-05,1.081e-05,8.688e-06,6.93e-06,8.516e-06,4.164e-06,2.666e-06,2.672e-06,3.474e-06,3.358e-06,5.932e-06,4.778e-06,3.956e-06,3.954e-06,4.722e-06,1.6472e-05,2.328e-05,9.152e-06,1.8852e-05,7.382e-06,1.3772e-05,1.0422e-05,1.2612e-05,7.964e-06,3.558e-06
408,2.99e-06,6.402e-06,1.032e-05,1.4702e-06,5.48e-06,1.1102e-05,9.896e-06,5.316e-06,3.408e-06,1.7076e-06,9.306e-06,9.976e-06,8.364e-06,6.574e-06,6.042e-06,8.386e-06,9.81e-06,7.046e-06,6.118e-06,6.126e-06,3.674e-06,3.052e-06,2.852e-06,3.164e-06,3.054e-06,5.044e-06,4.61e-06,3.318e-06,3.724e-06,5.584e-06,1.6524e-05,1.9376e-05,8.75e-06,2.07e-05,6.084e-06,1.6518e-05,9.336e-06,9.43e-06,1.0828e-05,8.682e-06
410,4.51e-06,3.272e-06,9.096e-06,5.15e-06,4.32e-06,1.0484e-05,1.1446e-05,4.23e-06,4.266e-06,4.044e-06,8.686e-06,8.266e-06,9.738e-06,5.012e-06,8.426e-06,8.554e-06,7.896e-06,8.1e-06,5.512e-06,7.366e-06,3.3e-06,3.352e-06,2.85e-06,3.792e-06,4.1e-06,5.44e-06,5.612e-06,3.412e-06,3.118e-06,4.76e-06,1.5542e-05,1.8116e-05,1.236e-05,1.6906e-05,1.3542e-06,1.8552e-05,9.908e-06,1.1384e-05,9.3e-06,9.54e-06
412,4.126e-06,2.44e-06,6.568e-06,4.57e-06,2.096e-06,1.0262e-05,1.2184e-05,3.95e-06,4.12e-06,4.12e-06,9.65e-06,8.17e-06,9.358e-06,6.736e-06,6.046e-06,9.532e-06,6.868e-06,9.616e-06,7.814e-06,7.228e-06,3.374e-06,3.202e-06,2.644e-06,2.524e-06,4.21e-06,4.94e-06,5.31e-06,2.874e-06,2.848e-06,4.126e-06,1.5638e-05,1.999e-05,1.2836e-05,1.623e-05,8.408e-06,1.4902e-05,1.4136e-05,1.3034e-05,1.0904e-05,1.4102e-05
414,1.0324e-05,7.744e-06,1.0588e-05,9.046e-06,1.1444e-05,1.2748e-05,1.1884e-05,7.462e-06,7.774e-06,8.492e-06,8.694e-06,7.842e-06,1.0646e-05,7.64e-06,8.186e-06,7.776e-06,7.796e-06,8.718e-06,6.666e-06,6.666e-06,3.494e-06,3.1e-06,3.1e-06,2.75e-06,4.052e-06,5.986e-06,5.156e-06,3.576e-06,3.424e-06,4.67e-06,2.038e-05,2.07e-05,1.5928e-05,2.326e-05,1.2638e-05,2.44e-05,1.6696e-05,2.208e-05,1.5094e-05,1.541e-05
416,2.026e-05,1.9964e-05,2.25e-05,2.174e-05,2.622e-05,2.548e-05,2.582e-05,2.028e-05,1.9894e-05,2.322e-05,1.2414e-05,1.214e-05,1.2956e-05,1.0938e-05,1.2774e-05,1.2414e-05,1.0638e-05,1.2698e-05,8.956e-06,1.1104e-05,4.016e-06,4.122e-06,3.556e-06,3.79e-06,4.382e-06,6.31e-06,5.096e-06,4.504e-06,3.842e-06,4.956e-06,3.486e-05,3.678e-05,3.54e-05,3.754e-05,3.054e-05,3.828e-05,3.094e-05,4.016e-05,2.716e-05,3.32e-05
418,5.128e-05,5.27e-05,5.312e-05,5.314e-05,5.5e-05,5.428e-05,5.544e-05,4.636e-05,4.892e-05,5.142e-05,2.116e-05,2.03e-05,2.13e-05,1.9432e-05,2.084e-05,2.042e-05,1.932e-05,1.9932e-05,1.8362e-05,1.9602e-05,5.594e-06,5.356e-06,4.41e-06,5.384e-06,5.796e-06,7.254e-06,6.924e-06,6.582e-06,5.38e-06,6.47e-06,7.636e-05,7.73e-05,7.642e-05,7.808e-05,7.01e-05,7.838e-05,7.094e-05,7.684e-05,6.748e-05,7.292e-05
420,0.0001029,0.00010418,0.00010392,0.00010444,0.00010338,0.00010518,0.00010522,9.604e-05,9.876e-05,0.00010254,3.404e-05,3.452e-05,3.476e-05,3.288e-05,3.532e-05,3.352e-05,3.244e-05,3.286e-05,3.15e-05,3.384e-05,7.688e-06,7.808e-06,7.644e-06,8.306e-06,8.294e-06,9.452e-06,9.476e-06,8.438e-06,7.688e-06,8.692e-06,0.0001463,0.00014828,0.00014698,0.00014774,0.00014118,0.00014862,0.00013976,0.00014302,0.00013642,0.00014024
422,0.00016752,0.0001703,0.00016932,0.00016968,0.00016844,0.00017108,0.00016952,0.00016444,0.00016464,0.0001705,5.126e-05,5.126e-05,5.252e-05,5.136e-05,5.19e-05,5.118e-05,5.112e-05,5.192e-05,4.942e-05,5.098e-05,1.1414e-05,1.149e-05,1.017e-05,1.153e-05,1.1664e-05,1.3228e-05,1.2432e-05,1.19e-05,1.1472e-05,1.1712e-05,0.0002442,0.0002478,0.0002428,0.000244,0.0002394,0.0002434,0.0002382,0.0002422,0.0002326,0.0002424
424,0.0002332,0.0002366,0.0002356,0.0002378,0.0002372,0.000236,0.0002358,0.0002314,0.0002324,0.000235,6.986e-05,6.902e-05,7.098e-05,6.972e-05,6.902e-05,6.924e-05,6.894e-05,7.054e-05,6.778e-05,6.878e-05,1.5512e-05,1.5406e-05,1.4358e-05,1.6036e-05,1.5704e-05,1.7806e-05,1.6568e-05,1.6122e-05,1.4904e-05,1.6316e-05,0.0003676,0.0003688,0.0003686,0.0003732,0.0003692,0.0003684,0.0003648,0.000369,0.000357,0.0003632
426,0.0002954,0.0002962,0.0002968,0.0002994,0.0002952,0.0002954,0.000295,0.0002916,0.0002924,0.0002952,8.616e-05,8.57e-05,8.668e-05,8.74e-05,8.646e-05,8.444e-05,8.31e-05,8.668e-05,8.334e-05,8.622e-05,2.134e-05,2.174e-05,2.02e-05,2.112e-05,2.11e-05,2.284e-05,2.212e-05,2.094e-05,1.9816e-05,2.14e-05,0.000531,0.0005304,0.0005302,0.0005376,0.0005294,0.0005262,0.0005248,0.0005288,0.0005164,0.0005272
428,0.0003498,0.0003502,0.000349,0.0003528,0.0003506,0.0003524,0.000348,0.0003436,0.0003466,0.0003504,0.0001017,0.0001013,0.00010414,0.00010076,0.0001025,0.00010066,9.976e-05,0.00010308,0.00010176,0.00010078,2.702e-05,2.748e-05,2.632e-05,2.674e-05,2.654e-05,2.904e-05,2.844e-05,2.746e-05,2.62e-05,2.834e-05,0.0007144,0.0007182,0.0007154,0.0007176,0.000716,0.0007126,0.000704,0.0007122,0.000702,0.000715
430,0.0003934,0.0003926,0.000392,0.0003952,0.0003946,0.0003942,0.0003902,0.0003878,0.0003892,0.0003924,0.00011414,0.00011368,0.00011564,0.00011396,0.00011516,0.00011228,0.0001128,0.00011566,0.00011398,0.0001135,3.298e-05,3.322e-05,3.25e-05,3.31e-05,3.296e-05,3.416e-05,3.422e-05,3.292e-05,3.218e-05,3.346e-05,0.0008786,0.0008832,0.0008802,0.0008812,0.0008814,0.0008768,0.0008742,0.0008786,0.0008684,0.0008776
432,0.0004168,0.000416,0.0004148,0.0004176,0.0004176,0.000415,0.0004128,0.0004126,0.0004122,0.0004148,0.00012126,0.00012148,0.00012284,0.00012148,0.00012266,0.0001195,0.0001205,0.00012082,0.00012036,0.00012186,3.788e-05,3.828e-05,3.732e-05,3.782e-05,3.782e-05,3.892e-05,3.884e-05,3.764e-05,3.708e-05,3.846e-05,0.0009948,0.0009974,0.0009942,0.0009966,0.0009986,0.0009914,0.0009932,0.0009932,0.0009836,0.0009908
434,0.0004014,0.0004012,0.0004,0.0004038,0.0004026,0.000402,0.0004,0.0003998,0.0004,0.0004026,0.00011828,0.00011902,0.00012136,0.00011934,0.00011996,0.00011714,0.00011788,0.00011898,0.0001188,0.00011914,4.082e-05,4.096e-05,4.054e-05,4.078e-05,4.112e-05,4.196e-05,4.166e-05,4.108e-05,3.996e-05,4.168e-05,0.0010356,0.0010396,0.0010366,0.0010402,0.0010418,0.0010362,0.0010354,0.0010384,0.0010252,0.0010334
436,0.0003368,0.0003366,0.000335,0.0003412,0.000338,0.0003392,0.0003384,0.000336,0.0003356,0.0003386,0.0001036,0.00010276,0.00010342,0.00010258,0.00010344,0.00010178,0.00010258,0.0001037,0.00010434,0.00010318,4.136e-05,4.19e-05,4.14e-05,4.156e-05,4.122e-05,4.22e-05,4.234e-05,4.182e-05,4.084e-05,4.204e-05,0.0010024,0.001004,0.0010062,0.0010046,0.0010078,0.0010056,0.0009998,0.0010046,0.0009942,0.0010024
438,0.0002396,0.0002364,0.0002386,0.0002426,0.0002394,0.0002418,0.000241,0.0002392,0.0002398,0.000243,7.862e-05,7.772e-05,7.86e-05,7.874e-05,7.812e-05,7.768e-05,7.768e-05,7.93e-05,8.016e-05,7.842e-05,3.944e-05,4.05e-05,3.994e-05,3.962e-05,4.006e-05,4.058e-05,4.122e-05,3.982e-05,3.968e-05,4.06e-05,0.0009104,0.0009136,0.0009158,0.0009122,0.000915,0.0009104,0.0009112,0.0009146,0.0009066,0.000914
440,0.00013886,0.00013878,0.00013764,0.0001429,0.00013918,0.00014164,0.00014092,0.0001377,0.00014088,0.00014398,5.41e-05,5.382e-05,5.284e-05,5.438e-05,5.414e-05,5.386e-05,5.434e-05,5.56e-05,5.642e-05,5.376e-05,3.744e-05,3.838e-05,3.714e-05,3.74e-05,3.756e-05,3.778e-05,3.798e-05,3.772e-05,3.77e-05,3.788e-05,0.0007696,0.0007696,0.0007712,0.0007712,0.0007716,0.0007704,0.0007736,0.0007744,0.000766,0.0007726
442,7.554e-05,7.384e-05,7.414e-05,7.732e-05,7.452e-05,7.578e-05,7.566e-05,7.182e-05,7.564e-05,7.878e-05,3.984e-05,3.866e-05,3.936e-05,4.03e-05,3.862e-05,3.944e-05,3.884e-05,3.998e-05,4.156e-05,4.054e-05,3.45e-05,3.582e-05,3.42e-05,3.458e-05,3.44e-05,3.482e-05,3.45e-05,3.46e-05,3.426e-05,3.51e-05,0.0005798,0.0005822,0.000584,0.0005812,0.000585,0.0005824,0.0005888,0.000589,0.000583,0.000588
444,5.554e-05,5.496e-05,5.358e-05,5.778e-05,5.68e-05,5.526e-05,5.496e-05,5.432e-05,5.382e-05,5.898e-05,3.656e-05,3.632e-05,3.57e-05,3.704e-05,3.636e-05,3.518e-05,3.574e-05,3.638e-05,3.746e-05,3.622e-05,3.198e-05,3.262e-05,3.154e-05,3.21e-05,3.21e-05,3.232e-05,3.248e-05,3.204e-05,3.236e-05,3.296e-05,0.0003978,0.0004,0.0004008,0.0004004,0.0004008,0.0004,0.0004104,0.00041,0.0004022,0.0004082
446,5.346e-05,5.344e-05,5.108e-05,5.474e-05,5.448e-05,5.29e-05,5.166e-05,5.084e-05,5.11e-05,5.696e-05,3.76e-05,3.68e-05,3.584e-05,3.85e-05,3.672e-05,3.604e-05,3.712e-05,3.748e-05,3.928e-05,3.822e-05,3.036e-05,3.096e-05,3.056e-05,3.044e-05,3.04e-05,3.098e-05,3.05e-05,3.082e-05,3.092e-05,3.124e-05,0.0002426,0.0002452,0.0002454,0.000246,0.000247,0.0002478,0.0002526,0.0002514,0.0002472,0.0002514
448,5.796e-05,5.58e-05,5.414e-05,5.714e-05,5.742e-05,5.58e-05,5.5e-05,5.334e-05,5.346e-05,6.004e-05,4.066e-05,3.982e-05,3.874e-05,4.014e-05,3.986e-05,3.92e-05,3.932e-05,4.068e-05,4.144e-05,4.106e-05,3.164e-05,3.176e-05,3.156e-05,3.128e-05,3.184e-05,3.148e-05,3.132e-05,3.154e-05,3.152e-05,3.184e-05,0.00014804,0.0001486,0.00014944,0.0001476,0.00015298,0.00015244,0.00015508,0.00015396,0.00015232,0.00015502
450,6.272e-05,5.972e-05,5.838e-05,6.058e-05,6.3e-05,5.868e-05,6.022e-05,5.824e-05,5.87e-05,6.288e-05,4.366e-05,4.276e-05,4.228e-05,4.37e-05,4.376e-05,4.326e-05,4.3e-05,4.38e-05,4.386e-05,4.446e-05,3.408e-05,3.43e-05,3.476e-05,3.416e-05,3.42e-05,3.41e-05,3.388e-05,3.406e-05,3.44e-05,3.454e-05,0.00011144,0.00011556,0.00011398,0.00011506,0.00011696,0.00011518,0.00011996,0.00011888,0.00011646,0.0001215
452,6.464e-05,6.316e-05,6.128e-05,6.43e-05,6.382e-05,6.042e-05,6.194e-05,6.05e-05,6.21e-05,6.452e-05,4.534e-05,4.478e-05,4.486e-05,4.572e-05,4.632e-05,4.694e-05,4.582e-05,4.602e-05,4.66e-05,4.634e-05,3.6e-05,3.712e-05,3.666e-05,3.672e-05,3.648e-05,3.656e-05,3.588e-05,3.652e-05,3.714e-05,3.65e-05,0.00010664,0.00010714,0.00010746,0.0001105,0.00011124,0.00010816,0.00011242,0.0001081,0.00010804,0.00011178
454,6.536e-05,6.35e-05,6.19e-05,6.304e-05,6.252e-05,6.144e-05,6.14e-05,6.3e-05,6.124e-05,6.588e-05,4.58e-05,4.466e-05,4.384e-05,4.644e-05,4.634e-05,4.686e-05,4.506e-05,4.654e-05,4.716e-05,4.698e-05,3.672e-05,3.822e-05,3.808e-05,3.85e-05,3.72e-05,3.716e-05,3.73e-05,3.812e-05,3.862e-05,3.81e-05,0.00010518,0.00010174,0.00010636,0.0001024,0.00010474,0.00010298,0.0001123,0.00010674,0.00010388,0.00010606
456,6.664e-05,6.12e-05,6.15e-05,6.442e-05,6.322e-05,6.128e-05,5.976e-05,6.226e-05,6.088e-05,6.376e-05,4.73e-05,4.608e-05,4.512e-05,4.72e-05,4.608e-05,4.738e-05,4.58e-05,4.664e-05,4.712e-05,4.836e-05,3.926e-05,3.924e-05,3.928e-05,3.986e-05,3.938e-05,3.86e-05,3.89e-05,3.988e-05,3.998e-05,3.93e-05,0.00010286,0.00010224,0.000105,0.00010672,0.00010562,9.876e-05,0.00010508,0.00010314,0.00010542,0.00010678
458,6.876e-05,6.406e-05,6.442e-05,6.588e-05,6.472e-05,6.146e-05,6.142e-05,6.382e-05,6.466e-05,6.666e-05,4.99e-05,4.75e-05,4.708e-05,4.946e-05,4.83e-05,5.032e-05,4.868e-05,4.972e-05,4.878e-05,5.064e-05,4.212e-05,4.176e-05,4.24e-05,4.22e-05,4.18e-05,4.14e-05,4.098e-05,4.238e-05,4.31e-05,4.204e-05,0.00010324,0.00010546,0.000108,0.00010884,0.00011032,0.00010236,0.00010718,0.00010406,0.00010696,0.00010588
460,7.148e-05,6.746e-05,6.574e-05,6.688e-05,6.684e-05,6.464e-05,6.45e-05,6.754e-05,6.61e-05,6.894e-05,5.256e-05,4.94e-05,4.932e-05,5.164e-05,5.158e-05,5.282e-05,5.056e-05,5.168e-05,5.092e-05,5.176e-05,4.51e-05,4.476e-05,4.508e-05,4.526e-05,4.462e-05,4.434e-05,4.428e-05,4.49e-05,4.588e-05,4.516e-05,0.00010496,0.00010604,0.00010772,0.00010746,0.00011136,0.00010594,0.0001089,0.00010682,0.00010844,0.00011092
462,7.3e-05,7.058e-05,6.92e-05,6.824e-05,7.242e-05,6.842e-05,6.81e-05,7.142e-05,6.912e-05,7.166e-05,5.494e-05,5.198e-05,5.202e-05,5.412e-05,5.358e-05,5.518e-05,5.328e-05,5.344e-05,5.304e-05,5.354e-05,4.79e-05,4.8e-05,4.8e-05,4.794e-05,4.78e-05,4.694e-05,4.72e-05,4.82e-05,4.878e-05,4.864e-05,0.0001062,0.00010832,0.00011014,0.00010958,0.00011086,0.00010498,0.00011192,0.00010732,0.00011172,0.00011264
464,7.722e-05,7.322e-05,7.346e-05,7.262e-05,7.486e-05,7.214e-05,7.366e-05,7.452e-05,7.402e-05,7.516e-05,5.756e-05,5.448e-05,5.456e-05,5.594e-05,5.63e-05,5.798e-05,5.68e-05,5.778e-05,5.628e-05,5.678e-05,5.15e-05,5.134e-05,5.176e-05,5.198e-05,5.13e-05,5.026e-05,5.084e-05,5.194e-05,5.228e-05,5.066e-05,0.00010984,0.00011056,0.00011298,0.00011224,0.00011382,0.00010832,0.00011426,0.00010766,0.0001135,0.00011308
466,8.12e-05,7.962e-05,7.62e-05,7.578e-05,7.7e-05,7.598e-05,7.924e-05,7.71e-05,7.772e-05,7.716e-05,5.956e-05,5.722e-05,5.72e-05,5.856e-05,5.878e-05,6.052e-05,6.072e-05,6.1e-05,5.884e-05,6.072e-05,5.582e-05,5.576e-05,5.608e-05,5.618e-05,5.58e-05,5.536e-05,5.512e-05,5.628e-05,5.696e-05,5.566e-05,0.00011418,0.00011316,0.00011752,0.0001174,0.00012126,0.00011302,0.00011866,0.00011152,0.00011906,0.00011844
468,8.85e-05,8.524e-05,8.39e-05,8.232e-05,7.976e-05,8.316e-05,8.156e-05,8.744e-05,8.36e-05,8.466e-05,6.382e-05,6.054e-05,6.154e-05,6.342e-05,6.34e-05,6.552e-05,6.426e-05,6.482e-05,6.396e-05,6.302e-05,6.146e-05,6.206e-05,6.288e-05,6.222e-05,6.168e-05,6.096e-05,6.074e-05,6.174e-05,6.282e-05,6.24e-05,0.0001195,0.00012476,0.00012496,0.00012232,0.00012778,0.00011864,0.0001229,0.00011786,0.0001257,0.00012478
470,9.002e-05,8.834e-05,8.376e-05,8.376e-05,8.518e-05,8.2e-05,8.554e-05,8.54e-05,8.508e-05,8.622e-05,6.53e-05,6.094e-05,6.102e-05,6.314e-05,6.402e-05,6.518e-05,6.354e-05,6.56e-05,6.352e-05,6.25e-05,6.442e-05,6.42e-05,6.492e-05,6.486e-05,6.412e-05,6.316e-05,6.336e-05,6.444e-05,6.53e-05,6.376e-05,0.00012146,0.00012606,0.00012718,0.00012298,0.00012554,0.0001194,0.00012158,0.00011916,0.0001256,0.00012352
472,8.794e-05,8.492e-05,8.274e-05,8.144e-05,8.262e-05,8.03e-05,8.448e-05,8.398e-05,8.424e-05,8.3e-05,6.244e-05,5.872e-05,6.016e-05,6.052e-05,6.18e-05,6.26e-05,6.216e-05,6.276e-05,6.162e-05,6.062e-05,6.576e-05,6.476e-05,6.556e-05,6.628e-05,6.488e-05,6.386e-05,6.43e-05,6.526e-05,6.602e-05,6.496e-05,0.00011938,0.00012044,0.0001224,0.00011974,0.00012442,0.00011588,0.00012066,0.00011584,0.00012354,0.00012074
474,8.66e-05,8.416e-05,8.196e-05,7.936e-05,8.064e-05,7.96e-05,8.286e-05,8.35e-05,8.402e-05,8.194e-05,6.134e-05,5.678e-05,5.79e-05,5.992e-05,5.928e-05,6.032e-05,6e-05,5.914e-05,5.912e-05,5.898e-05,6.614e-05,6.472e-05,6.592e-05,6.62e-05,6.55e-05,6.454e-05,6.478e-05,6.548e-05,6.672e-05,6.558e-05,0.00011756,0.00011866,0.00011906,0.00011894,0.00012154,0.00011144,0.00011642,0.00011158,0.00012032,0.00011552
476,8.232e-05,7.972e-05,7.926e-05,7.666e-05,7.814e-05,7.778e-05,8.006e-05,8.114e-05,7.95e-05,7.818e-05,5.734e-05,5.354e-05,5.382e-05,5.48e-05,5.57e-05,5.548e-05,5.588e-05,5.49e-05,5.554e-05,5.672e-05,6.464e-05,6.376e-05,6.488e-05,6.53e-05,6.406e-05,6.35e-05,6.438e-05,6.468e-05,6.476e-05,6.37e-05,0.00010932,0.00011134,0.00011302,0.0001099,0.00011518,0.0001082,0.00010778,0.0001054,0.0001138,0.00010968
478,7.95e-05,7.902e-05,7.604e-05,7.556e-05,7.814e-05,7.466e-05,7.736e-05,8.078e-05,7.648e-05,7.658e-05,5.4e-05,5.11e-05,5.282e-05,5.316e-05,5.406e-05,5.406e-05,5.384e-05,5.364e-05,5.388e-05,5.436e-05,6.462e-05,6.398e-05,6.554e-05,6.498e-05,6.434e-05,6.37e-05,6.48e-05,6.428e-05,6.558e-05,6.382e-05,0.00010584,0.00010836,0.00010798,0.00010652,0.00011032,0.00010346,0.00010538,0.00010336,0.00010804,0.00010774
480,8.188e-05,8.144e-05,8.02e-05,7.786e-05,7.952e-05,7.782e-05,8.04e-05,8.176e-05,8.07e-05,7.798e-05,5.54e-05,5.324e-05,5.394e-05,5.41e-05,5.612e-05,5.566e-05,5.616e-05,5.504e-05,5.318e-05,5.43e-05,6.914e-05,6.774e-05,6.946e-05,6.934e-05,6.892e-05,6.736e-05,6.856e-05,6.814e-05,6.928e-05,6.836e-05,0.00010884,0.000112,0.00010992,0.0001111,0.00011162,0.00010418,0.00010636,0.0001048,0.00011226,0.00010912
482,8.656e-05,8.5e-05,8.31e-05,8.258e-05,8.31e-05,8.234e-05,8.526e-05,8.336e-05,8.298e-05,8.112e-05,5.838e-05,5.684e-05,5.738e-05,5.764e-05,5.832e-05,5.86e-05,5.904e-05,5.696e-05,5.658e-05,5.682e-05,7.546e-05,7.484e-05,7.54e-05,7.62e-05,7.49e-05,7.45e-05,7.494e-05,7.538e-05,7.544e-05,7.452e-05,0.00011024,0.00011374,0.00011502,0.00011558,0.0001156,0.00011022,0.00011096,0.00010736,0.00011358,0.00011358
484,8.688e-05,8.632e-05,8.376e-05,8.208e-05,8.464e-05,8.352e-05,8.544e-05,8.556e-05,8.416e-05,8.086e-05,6.154e-05,6.078e-05,6.1e-05,6.118e-05,6.172e-05,6.138e-05,6.174e-05,6.002e-05,5.956e-05,5.992e-05,7.946e-05,7.886e-05,7.946e-05,7.994e-05,7.892e-05,7.854e-05,7.862e-05,7.898e-05,7.986e-05,7.872e-05,0.00010992,0.00011446,0.00011278,0.00011328,0.0001138,0.00010858,0.00011166,0.00010866,0.00011336,0.00011132
486,8.422e-05,8.262e-05,8.37e-05,7.946e-05,8.084e-05,8.26e-05,8.458e-05,8.312e-05,8.37e-05,8.022e-05,7.128e-05,7.086e-05,7.022e-05,7.048e-05,7.216e-05,7.014e-05,7.218e-05,7.046e-05,6.94e-05,6.952e-05,8.354e-05,8.31e-05,8.378e-05,8.43e-05,8.326e-05,8.28e-05,8.296e-05,8.32e-05,8.4e-05,8.29e-05,0.00010954,0.00011512,0.00011324,0.0001118,0.00011288,0.00010652,0.00010886,0.0001079,0.00011232,0.00011036
488,8.542e-05,8.354e-05,8.396e-05,8.036e-05,8.426e-05,8.288e-05,8.486e-05,8.304e-05,8.308e-05,8.096e-05,0.00011324,0.00011164,0.00011094,0.00011024,0.00011252,0.00010864,0.0001104,0.00010844,0.00010798,0.00010822,0.00010162,0.000101,0.00010164,0.00010206,0.0001012,9.956e-05,0.00010026,0.00010064,0.00010046,9.97e-05,0.00011218,0.00011862,0.00011498,0.00011522,0.00011406,0.00010948,0.00010968,0.00011096,0.0001138,0.0001139
490,8.87e-05,8.812e-05,8.704e-05,8.478e-05,8.63e-05,8.548e-05,8.832e-05,8.82e-05,8.694e-05,8.494e-05,0.000257,0.0002566,0.0002556,0.0002548,0.0002574,0.000247,0.0002498,0.0002468,0.000246,0.000247,0.00016812,0.00016704,0.00016786,0.00016798,0.0001678,0.00016358,0.00016414,0.00016386,0.00016366,0.0001633,0.00012618,0.00013098,0.00012736,0.000129,0.00012614,0.00012378,0.00012488,0.00012492,0.00012748,0.00012656
492,9.396e-05,9.21e-05,9.498e-05,9.146e-05,9.368e-05,9.262e-05,9.456e-05,9.602e-05,9.374e-05,9.224e-05,0.0006088,0.0006108,0.0006076,0.0006078,0.0006094,0.00059,0.0005918,0.0005886,0.0005886,0.000589,0.0003348,0.000333,0.0003342,0.0003342,0.000334,0.000325,0.0003246,0.0003244,0.0003246,0.0003242,0.00015546,0.00015994,0.00015582,0.0001569,0.00015628,0.0001506,0.00015202,0.00015492,0.00015434,0.00015518
494,9.93e-05,9.872e-05,9.848e-05,9.762e-05,9.884e-05,9.682e-05,9.97e-05,9.568e-05,9.824e-05,9.44e-05,0.0012206,0.0012236,0.0012214,0.0012182,0.0012196,0.0011926,0.0011932,0.0011928,0.001191,0.001195,0.000626,0.0006254,0.0006252,0.0006266,0.0006256,0.0006128,0.0006118,0.0006126,0.0006112,0.000613,0.00019882,0.0001999,0.0001967,0.00019828,0.00019882,0.0001965,0.0001944,0.00019704,0.00019508,0.00019752
496,0.00010364,0.00010272,0.0001021,0.00010114,0.00010218,0.0001007,0.00010272,0.00010092,0.0001026,9.932e-05,0.0018684,0.0018714,0.0018708,0.0018658,0.001868,0.0018354,0.0018396,0.0018382,0.001839,0.0018436,0.000917,0.0009166,0.000916,0.0009176,0.0009166,0.000902,0.000902,0.0009032,0.0009024,0.0009052,0.0002362,0.00024,0.0002368,0.0002374,0.0002386,0.0002362,0.0002314,0.0002362,0.0002364,0.0002386
498,0.00011754,0.00011596,0.00011624,0.0001151,0.00011588,0.000115,0.0001155,0.00011598,0.00011694,0.00011326,0.002492,0.002494,0.002494,0.00249,0.002492,0.002454,0.00246,0.002462,0.002464,0.002468,0.001147,0.001146,0.001146,0.0011468,0.0011458,0.001132,0.0011328,0.0011352,0.0011344,0.0011366,0.0002664,0.0002722,0.000266,0.0002706,0.0002666,0.0002676,0.0002594,0.0002662,0.000268,0.0002684
500,0.00014214,0.00014106,0.00014294,0.0001423,0.0001422,0.0001409,0.00014204,0.00013936,0.00014242,0.00013766,0.003066,0.003068,0.003068,0.003062,0.003064,0.003022,0.003032,0.003036,0.003036,0.00304,0.0012978,0.001296,0.0012962,0.0012968,0.0012958,0.0012832,0.0012854,0.0012876,0.001286,0.0012874,0.0002862,0.0002884,0.000284,0.0002898,0.0002862,0.000287,0.000279,0.000286,0.0002868,0.0002872
502,0.00017308,0.00017186,0.00017338,0.00017482,0.00017218,0.00017314,0.00017356,0.0001699,0.00017256,0.0001697,0.003554,0.003556,0.003558,0.00355,0.003552,0.00351,0.00352,0.003526,0.003526,0.003526,0.001384,0.001382,0.0013822,0.001383,0.0013818,0.0013712,0.0013734,0.0013754,0.0013732,0.0013742,0.0002966,0.0003,0.0002948,0.0002996,0.0002992,0.0002972,0.000292,0.0002978,0.0002972,0.000297
504,0.00019752,0.00019646,0.00019886,0.00019916,0.00019672,0.000199,0.00019718,0.00019336,0.00019856,0.00019474,0.003906,0.003908,0.003908,0.0039,0.003904,0.003872,0.003882,0.003886,0.003882,0.00388,0.0014266,0.0014248,0.0014248,0.0014252,0.001424,0.0014178,0.001419,0.0014206,0.0014168,0.0014182,0.0003032,0.000305,0.0002986,0.000306,0.0003042,0.0003022,0.000299,0.0003046,0.0003004,0.0003006
506,0.0002098,0.0002098,0.0002114,0.0002104,0.0002116,0.0002116,0.0002106,0.0002072,0.0002114,0.0002068,0.004036,0.004038,0.00404,0.004034,0.004034,0.004022,0.004028,0.00403,0.004026,0.004024,0.0014136,0.0014126,0.0014122,0.001412,0.0014108,0.0014114,0.0014104,0.0014114,0.001408,0.0014092,0.0002972,0.0002992,0.0002944,0.0003014,0.0002948,0.0002996,0.000296,0.0002986,0.0002958,0.0002996
508,0.0002148,0.0002134,0.0002148,0.0002152,0.0002136,0.000217,0.0002164,0.0002156,0.000215,0.000213,0.00385,0.00385,0.003854,0.003848,0.00385,0.003852,0.00385,0.003854,0.003854,0.003852,0.0012848,0.0012834,0.0012838,0.0012834,0.001283,0.0012886,0.0012868,0.0012878,0.0012854,0.0012872,0.0002746,0.0002774,0.0002718,0.0002762,0.0002776,0.0002782,0.000271,0.0002762,0.0002726,0.000276
510,0.000216,0.0002158,0.0002176,0.0002162,0.000217,0.0002184,0.0002176,0.0002156,0.0002172,0.000216,0.003352,0.003352,0.003358,0.003354,0.003352,0.003364,0.003362,0.003366,0.003368,0.003368,0.0010142,0.0010128,0.0010136,0.0010132,0.001012,0.0010228,0.0010214,0.0010224,0.001021,0.0010226,0.0002344,0.0002376,0.0002308,0.0002362,0.0002366,0.0002386,0.000235,0.0002388,0.000234,0.0002382
512,0.0002134,0.0002124,0.0002138,0.0002146,0.0002154,0.0002156,0.000214,0.0002108,0.0002144,0.0002134,0.002668,0.002668,0.002676,0.002672,0.00267,0.00268,0.00268,0.002686,0.00269,0.002688,0.0006656,0.0006638,0.000665,0.0006642,0.0006636,0.0006754,0.0006746,0.0006758,0.0006744,0.0006758,0.00019586,0.00019828,0.00019234,0.0001989,0.00019592,0.00019964,0.00019566,0.00019924,0.00019508,0.00019902
514,0.000201,0.00019862,0.00019986,0.0002012,0.000202,0.0002014,0.0002002,0.00019708,0.0002018,0.0002002,0.0019738,0.0019734,0.0019796,0.0019766,0.001974,0.0019812,0.0019842,0.0019912,0.001994,0.0019906,0.0003792,0.0003782,0.0003786,0.000378,0.0003782,0.000386,0.0003856,0.0003862,0.000386,0.000386,0.00017292,0.00017152,0.00016868,0.00017346,0.00017294,0.00017462,0.000171,0.00017406,0.00017018,0.00017282
516,0.00017402,0.0001752,0.00017626,0.00017566,0.00018032,0.00017884,0.00017522,0.00017302,0.0001773,0.00017652,0.0013666,0.001366,0.00137,0.0013672,0.0013666,0.0013744,0.0013756,0.001382,0.001384,0.0013792,0.0002334,0.0002328,0.0002328,0.0002326,0.000233,0.0002368,0.0002358,0.0002362,0.0002356,0.0002356,0.00016382,0.00016178,0.00015886,0.0001643,0.0001618,0.0001668,0.00016044,0.00016578,0.00016138,0.0001643
518,0.00015166,0.00014916,0.00015098,0.00015102,0.00015232,0.0001517,0.0001501,0.00014674,0.00015124,0.00015002,0.0008406,0.0008408,0.000844,0.0008414,0.0008412,0.0008486,0.0008506,0.0008522,0.0008552,0.000851,0.00018556,0.0001854,0.00018538,0.00018478,0.00018482,0.00018686,0.00018604,0.00018576,0.00018498,0.00018574,0.00016208,0.00015704,0.00015772,0.00016424,0.00016204,0.0001658,0.00016048,0.00016272,0.00015912,0.00016158
520,0.0001379,0.00013494,0.00013748,0.00013888,0.00013812,0.00014034,0.00013734,0.00013476,0.00013816,0.00013918,0.0005088,0.0005086,0.0005116,0.0005098,0.0005092,0.0005138,0.0005142,0.0005154,0.0005178,0.0005128,0.00017362,0.0001737,0.00017356,0.00017336,0.00017328,0.00017432,0.00017404,0.00017358,0.00017318,0.00017416,0.000161,0.0001587,0.00015928,0.00016204,0.00016184,0.0001652,0.00016104,0.00016378,0.00015702,0.00015896
522,0.00013478,0.00013234,0.00013518,0.00013566,0.00013678,0.0001365,0.00013396,0.00013292,0.0001352,0.00013586,0.0003676,0.0003672,0.000369,0.0003676,0.000368,0.0003676,0.0003678,0.0003684,0.000371,0.0003678,0.00016714,0.00016738,0.00016718,0.00016684,0.00016694,0.00016782,0.00016728,0.00016706,0.00016658,0.00016756,0.00016074,0.0001577,0.00015746,0.000163,0.00015998,0.00016522,0.00016044,0.000162,0.00015736,0.0001596
524,0.00013514,0.00013328,0.0001354,0.00013878,0.00013602,0.0001376,0.0001343,0.00013374,0.0001357,0.0001372,0.0003154,0.0003158,0.0003176,0.0003166,0.000317,0.0003144,0.0003142,0.0003162,0.0003182,0.0003144,0.00016092,0.0001607,0.0001608,0.00016054,0.00016042,0.00016122,0.00016038,0.00016102,0.00016008,0.00016112,0.0001597,0.0001549,0.00015646,0.00016178,0.00015998,0.00016442,0.00015816,0.00015988,0.00015644,0.00015952
526,0.00013892,0.00013674,0.0001373,0.00014108,0.00013804,0.00013986,0.00013642,0.00013542,0.00013794,0.00013962,0.000292,0.0002936,0.0002944,0.0002932,0.0002944,0.0002912,0.00029,0.0002928,0.0002948,0.000292,0.00015506,0.00015502,0.0001553,0.0001548,0.00015506,0.00015488,0.0001549,0.00015508,0.00015502,0.00015576,0.0001587,0.0001541,0.00015396,0.00015988,0.00015938,0.00016204,0.0001589,0.00015938,0.00015578,0.00015632
528,0.00014124,0.00013988,0.0001401,0.0001424,0.0001411,0.0001421,0.00013922,0.0001376,0.00014034,0.00014236,0.0002744,0.0002748,0.0002756,0.0002742,0.0002752,0.0002726,0.0002724,0.0002734,0.0002768,0.0002736,0.00014904,0.00014966,0.00014932,0.00014884,0.00014896,0.00014924,0.00014938,0.00014936,0.00014954,0.00014958,0.00015538,0.00014894,0.00015294,0.00015788,0.00015526,0.00015672,0.00015626,0.00015732,0.00015396,0.0001536
530,0.00014368,0.00014044,0.00014082,0.00014196,0.00014228,0.00014334,0.00014048,0.00014,0.00014228,0.00014432,0.0002528,0.0002542,0.0002546,0.0002544,0.0002556,0.0002522,0.0002538,0.000256,0.000257,0.000253,0.0001427,0.00014398,0.00014334,0.0001429,0.00014292,0.00014392,0.00014376,0.0001437,0.0001441,0.000144,0.00014992,0.00014558,0.00014834,0.00015164,0.00014864,0.0001529,0.00015154,0.00014954,0.00014734,0.00014978
532,0.00014436,0.0001425,0.00014094,0.00014534,0.00014456,0.00014486,0.00014324,0.00014246,0.00014232,0.0001459,0.0002376,0.0002388,0.0002394,0.0002386,0.000239,0.0002386,0.000238,0.0002396,0.0002414,0.0002376,0.00013954,0.00014064,0.00013986,0.00014002,0.00013976,0.00014104,0.00014116,0.0001406,0.00014112,0.00014102,0.00014516,0.00013886,0.00014218,0.00014736,0.0001455,0.00014912,0.0001451,0.00014502,0.00014452,0.00014284
534,0.00014482,0.00014424,0.00014286,0.00014564,0.00014458,0.00014484,0.00014394,0.00014292,0.000144,0.00014648,0.0002244,0.0002252,0.0002256,0.0002262,0.0002254,0.0002256,0.000225,0.0002258,0.0002276,0.0002246,0.00013792,0.0001391,0.00013818,0.0001382,0.00013798,0.00013888,0.00013894,0.00013868,0.00013868,0.0001388,0.00014044,0.00013456,0.00013924,0.00014382,0.00014202,0.00014316,0.00014126,0.00014042,0.00014016,0.00013968
536,0.00014518,0.00014454,0.0001427,0.0001471,0.00014578,0.00014514,0.00014304,0.00014234,0.00014334,0.00014564,0.0002136,0.0002142,0.0002144,0.0002152,0.000214,0.0002142,0.0002136,0.0002144,0.0002158,0.0002124,0.00013686,0.00013754,0.00013698,0.00013664,0.0001368,0.0001373,0.00013726,0.00013706,0.0001371,0.00013734,0.00013576,0.00013074,0.00013566,0.000138,0.000138,0.00014066,0.00013828,0.00013606,0.00013604,0.00013588
538,0.00014404,0.00014472,0.00014306,0.00014612,0.00014646,0.0001448,0.0001429,0.00014208,0.00014258,0.00014608,0.000205,0.0002064,0.0002064,0.000207,0.0002062,0.0002064,0.0002054,0.0002056,0.0002068,0.0002044,0.00013674,0.00013668,0.00013658,0.0001365,0.0001366,0.00013614,0.0001362,0.00013632,0.00013672,0.00013642,0.0001346,0.00012954,0.0001334,0.00013718,0.00013598,0.00013676,0.00013582,0.00013322,0.00013308,0.00013194
540,0.00014224,0.000143,0.00014218,0.00014444,0.00014386,0.00014246,0.00014094,0.00013956,0.0001415,0.00014486,0.00019994,0.0002,0.0002002,0.0002014,0.0002006,0.0001997,0.00019928,0.00019916,0.000201,0.00019838,0.00013692,0.000137,0.00013674,0.0001368,0.00013642,0.00013584,0.000136,0.00013652,0.0001366,0.00013686,0.00013364,0.00012984,0.00013272,0.00013506,0.00013298,0.00013596,0.00013548,0.00013168,0.00013014,0.000131
542,0.00013956,0.00014016,0.00013794,0.00013948,0.0001395,0.0001379,0.00013916,0.0001378,0.00013792,0.00014228,0.00019378,0.00019528,0.00019378,0.00019554,0.00019432,0.00019326,0.0001934,0.00019584,0.00019634,0.00019348,0.00013728,0.0001377,0.0001372,0.00013706,0.00013718,0.00013646,0.00013692,0.00013702,0.00013702,0.00013678,0.00013352,0.00012884,0.00013298,0.00013352,0.00013368,0.00013544,0.00013434,0.00013158,0.00013224,0.0001323
544,0.00013536,0.0001361,0.00013382,0.00013584,0.00013658,0.0001337,0.0001358,0.00013368,0.00013568,0.00013856,0.00019112,0.00019248,0.00019136,0.00019304,0.00019134,0.0001913,0.00019252,0.00019326,0.00019304,0.00019132,0.0001379,0.00013866,0.00013784,0.00013806,0.00013816,0.00013768,0.0001382,0.0001384,0.00013802,0.00013816,0.000137,0.000132,0.00013676,0.00013702,0.00013692,0.00013904,0.0001361,0.00013458,0.00013408,0.00013384
546,0.00012932,0.00013104,0.00012884,0.00013082,0.00013024,0.00012884,0.00013088,0.0001289,0.00012938,0.00013212,0.0001892,0.00019022,0.00018922,0.00019044,0.00018926,0.0001893,0.00019042,0.00019076,0.00019074,0.00018854,0.00013848,0.00013912,0.00013882,0.00013886,0.00013866,0.00013848,0.00013908,0.00013914,0.0001391,0.00013902,0.00014078,0.00013656,0.00014072,0.00014154,0.00014138,0.0001428,0.00014204,0.00013792,0.00013982,0.0001405
548,0.00012312,0.00012504,0.000122,0.00012494,0.00012486,0.00012302,0.00012454,0.0001234,0.00012352,0.00012556,0.00018714,0.00018878,0.00018774,0.0001889,0.00018746,0.00018824,0.0001884,0.00018978,0.0001885,0.00018706,0.00013976,0.00014006,0.00014026,0.00013982,0.0001401,0.00013934,0.00013982,0.0001405,0.00014008,0.00013974,0.00014768,0.00014562,0.00014716,0.00014724,0.00014634,0.00015028,0.00014826,0.00014534,0.0001471,0.00014476
550,0.00011672,0.00011882,0.0001165,0.00011836,0.0001193,0.00011638,0.00011762,0.00011706,0.00011788,0.0001201,0.00018684,0.00018692,0.00018784,0.0001883,0.00018664,0.00018806,0.00018598,0.00018854,0.00018694,0.0001865,0.00014096,0.00014148,0.00014156,0.00014126,0.00014124,0.00014062,0.00014074,0.00014156,0.00014086,0.00014052,0.00015744,0.00015502,0.00015654,0.00015778,0.00015554,0.00015896,0.00015662,0.0001543,0.00015726,0.00015406
552,0.00011164,0.00011312,0.0001124,0.00011274,0.00011456,0.0001104,0.00011258,0.00011168,0.00011094,0.00011352,0.00018738,0.00018706,0.00018612,0.00018808,0.00018712,0.00018732,0.00018688,0.00018718,0.00018568,0.0001858,0.00014198,0.00014184,0.00014198,0.00014218,0.00014212,0.00014126,0.00014102,0.00014174,0.00014126,0.00014118,0.00017628,0.00017344,0.0001758,0.00017596,0.00017598,0.00017758,0.000175,0.00017112,0.0001729,0.00017162
554,0.00010678,0.00010852,0.00010664,0.00010724,0.00010838,0.00010616,0.00010668,0.00010628,0.00010752,0.00010844,0.0001863,0.00018656,0.00018748,0.00018868,0.00018712,0.0001873,0.00018648,0.00018634,0.00018596,0.00018634,0.00014292,0.0001429,0.00014274,0.00014316,0.0001431,0.00014176,0.00014178,0.0001429,0.00014188,0.00014192,0.0002364,0.0002352,0.0002366,0.000237,0.000234,0.0002334,0.000231,0.0002278,0.000229,0.000229
556,0.00010308,0.00010788,0.00010526,0.00010494,0.00010664,0.00010316,0.00010566,0.0001051,0.00010556,0.00010608,0.00018644,0.00018634,0.0001864,0.00018824,0.00018628,0.00018744,0.00018646,0.00018662,0.00018588,0.0001865,0.000143,0.00014268,0.00014318,0.00014334,0.00014342,0.00014168,0.00014194,0.00014346,0.00014254,0.000142,0.0004074,0.0004066,0.0004062,0.0004072,0.0004062,0.0003992,0.0003976,0.0003956,0.0003964,0.0003976
558,0.00010364,0.0001071,0.00010466,0.00010462,0.00010708,0.00010212,0.0001051,0.00010528,0.000105,0.0001056,0.0001866,0.00018532,0.00018672,0.00018698,0.00018596,0.00018516,0.00018606,0.00018716,0.00018566,0.00018654,0.00014314,0.00014256,0.00014338,0.00014348,0.00014322,0.00014152,0.00014238,0.00014356,0.000143,0.00014214,0.0007544,0.000756,0.0007522,0.0007566,0.0007556,0.0007398,0.000741,0.0007358,0.0007392,0.0007396
560,0.00010616,0.00010992,0.00010692,0.00010694,0.00010846,0.00010378,0.000107,0.00010818,0.00010808,0.0001076,0.0001866,0.0001854,0.0001859,0.00018644,0.00018596,0.00018598,0.0001864,0.00018754,0.00018544,0.00018604,0.0001431,0.00014254,0.00014304,0.00014342,0.00014356,0.00014186,0.00014256,0.0001438,0.00014322,0.00014218,0.0012836,0.0012902,0.0012804,0.0012902,0.0012896,0.0012658,0.0012686,0.001259,0.001265,0.001263
562,0.00011136,0.0001148,0.00011404,0.00011348,0.000114,0.00010968,0.0001129,0.00011378,0.00011344,0.00011224,0.00018548,0.00018386,0.00018534,0.00018594,0.0001867,0.00018566,0.00018624,0.00018622,0.0001841,0.00018436,0.00014322,0.00014256,0.0001433,0.00014302,0.00014288,0.00014168,0.00014284,0.00014372,0.00014266,0.00014188,0.002004,0.002022,0.002002,0.002018,0.002022,0.0019874,0.001991,0.0019706,0.001981,0.001979
564,0.00013226,0.0001371,0.00013418,0.00013212,0.00013428,0.00012866,0.00013206,0.00013532,0.00013228,0.00013188,0.00018248,0.00018302,0.0001847,0.00018216,0.0001835,0.00018466,0.00018406,0.00018376,0.00018232,0.0001829,0.00014248,0.00014168,0.00014278,0.0001426,0.00014294,0.00014102,0.00014158,0.00014254,0.00014174,0.00014066,0.003042,0.003078,0.003038,0.003082,0.003082,0.00303,0.003034,0.00299,0.003018,0.003012
566,0.0002098,0.0002134,0.000211,0.0002096,0.0002122,0.0002042,0.0002056,0.0002076,0.0002064,0.0002062,0.00018142,0.00018112,0.00018186,0.00018148,0.00018216,0.00018166,0.00018288,0.0001806,0.00017956,0.00018104,0.00014168,0.00014108,0.00014168,0.00014188,0.00014234,0.00014008,0.00014046,0.0001415,0.00014038,0.00013936,0.004158,0.004234,0.004152,0.00424,0.004244,0.00417,0.004176,0.004088,0.004146,0.00414
568,0.0004282,0.0004336,0.0004284,0.0004278,0.000431,0.0004166,0.0004176,0.0004188,0.0004152,0.0004164,0.00017954,0.00017788,0.00017918,0.00017768,0.00018038,0.00017822,0.0001788,0.00017782,0.0001765,0.00017844,0.00014068,0.00014048,0.00014042,0.0001408,0.00014098,0.00013924,0.00013938,0.00014022,0.00013948,0.00013888,0.005286,0.005412,0.00528,0.005426,0.005434,0.00534,0.005352,0.005204,0.005308,0.005306
570,0.0008452,0.0008508,0.000844,0.0008444,0.0008492,0.0008224,0.0008244,0.00083,0.000822,0.0008242,0.00017478,0.00017356,0.0001748,0.00017242,0.00017506,0.00017328,0.00017396,0.00017276,0.00017154,0.00017406,0.00013856,0.00013824,0.00013846,0.00013894,0.00013896,0.00013702,0.00013758,0.0001381,0.00013766,0.0001376,0.006382,0.006568,0.006378,0.00659,0.0066,0.006492,0.006514,0.0063,0.00646,0.00646
572,0.0014538,0.0014642,0.0014508,0.0014578,0.0014654,0.001424,0.0014226,0.0014376,0.0014228,0.0014264,0.0001697,0.00016976,0.00017146,0.00016896,0.00017074,0.00016894,0.00017002,0.00016816,0.00016832,0.00016986,0.00013634,0.00013608,0.00013644,0.00013676,0.0001372,0.00013508,0.00013568,0.00013602,0.00013572,0.0001357,0.007386,0.00763,0.007384,0.007654,0.007668,0.007558,0.007588,0.007316,0.007534,0.007532
574,0.002298,0.00232,0.002296,0.00232,0.00233,0.002258,0.00226,0.002298,0.002264,0.002268,0.00016844,0.00016736,0.0001695,0.0001671,0.0001681,0.00016776,0.00016802,0.00016662,0.00016658,0.0001693,0.00013398,0.00013378,0.0001341,0.00013486,0.00013402,0.0001332,0.00013362,0.0001344,0.00013352,0.00013362,0.008276,0.00856,0.008274,0.008586,0.0086,0.008496,0.008542,0.008226,0.008488,0.008484
576,0.00336,0.00341,0.003356,0.003424,0.003434,0.003308,0.003312,0.003404,0.00332,0.003324,0.00017324,0.00017234,0.0001744,0.00017194,0.00017452,0.0001724,0.00017462,0.00017236,0.00017202,0.00017394,0.00013338,0.0001328,0.00013376,0.00013368,0.00013336,0.00013236,0.0001333,0.00013354,0.00013364,0.00013324,0.00901,0.009314,0.00901,0.009342,0.009352,0.00926,0.009314,0.00898,0.00926,0.009256
578,0.004412,0.004504,0.00441,0.004538,0.004556,0.004352,0.00436,0.004518,0.004368,0.00437,0.00019036,0.00018954,0.00019074,0.00018902,0.00019084,0.00018922,0.00019058,0.00018828,0.00018926,0.00019052,0.0001391,0.00013876,0.00013914,0.00013942,0.00013886,0.00013764,0.00013862,0.00013862,0.0001383,0.00013772,0.009532,0.009814,0.009534,0.00984,0.009848,0.009772,0.009822,0.009512,0.009772,0.009764
580,0.005456,0.005596,0.005452,0.005658,0.005682,0.005386,0.005398,0.005638,0.005402,0.0054,0.0002272,0.0002258,0.0002266,0.000225,0.0002278,0.0002236,0.0002258,0.0002242,0.0002244,0.000225,0.00015424,0.00015476,0.0001552,0.00015504,0.00015464,0.00015282,0.00015394,0.00015378,0.00015334,0.00015312,0.0099,0.010106,0.009902,0.010124,0.010128,0.010068,0.010106,0.00988,0.010064,0.01005
582,0.006424,0.006616,0.006416,0.006702,0.00673,0.00635,0.00636,0.00668,0.006356,0.006352,0.000294,0.0002926,0.0002934,0.0002908,0.000295,0.0002896,0.0002906,0.0002886,0.000289,0.0002898,0.000184,0.00018436,0.00018424,0.00018476,0.00018466,0.00018232,0.0001826,0.00018262,0.00018242,0.00018236,0.010112,0.010206,0.010112,0.010214,0.010212,0.010168,0.01019,0.010084,0.010156,0.01014
584,0.007232,0.007474,0.007226,0.007572,0.007598,0.00717,0.00717,0.007548,0.007162,0.007156,0.0004204,0.0004196,0.0004196,0.0004156,0.00042,0.0004126,0.0004134,0.0004106,0.000411,0.000412,0.000233,0.000233,0.000233,0.0002338,0.0002326,0.0002302,0.0002304,0.0002306,0.0002298,0.00023,0.010186,0.010176,0.010186,0.010168,0.010168,0.01014,0.010142,0.010148,0.010116,0.010104
586,0.007854,0.008088,0.007846,0.00816,0.00818,0.007808,0.007798,0.008142,0.007788,0.00778,0.0006928,0.0006932,0.0006938,0.0006902,0.0006932,0.0006804,0.000681,0.0006798,0.000678,0.00068,0.0003204,0.0003208,0.0003204,0.0003208,0.0003196,0.000316,0.0003164,0.0003158,0.0003154,0.0003162,0.010116,0.01001,0.010114,0.01,0.009996,0.009978,0.009968,0.010072,0.009952,0.00995
588,0.008156,0.00831,0.00815,0.008334,0.008344,0.008126,0.00811,0.00832,0.008102,0.008098,0.0010416,0.001043,0.0010416,0.0010388,0.001042,0.0010264,0.0010258,0.0010248,0.0010254,0.001027,0.0004348,0.000435,0.0004344,0.0004354,0.0004348,0.0004294,0.0004292,0.0004294,0.0004288,0.0004298,0.009966,0.009812,0.009962,0.0098,0.009794,0.009788,0.009772,0.009924,0.009776,0.009778
590,0.008172,0.008182,0.008166,0.00815,0.008146,0.008156,0.008138,0.00814,0.00814,0.008136,0.0013778,0.0013782,0.0013772,0.0013756,0.0013776,0.001363,0.0013624,0.0013628,0.001364,0.0013672,0.0005794,0.0005794,0.0005794,0.00058,0.0005788,0.0005718,0.0005718,0.0005722,0.0005724,0.0005738,0.009738,0.009564,0.009732,0.009552,0.009546,0.00954,0.009532,0.009706,0.009548,0.009556
592,0.007788,0.007648,0.007784,0.007562,0.007546,0.007782,0.00777,0.007556,0.007786,0.007784,0.0015988,0.001598,0.0015988,0.0015946,0.001598,0.0015844,0.0015846,0.001587,0.0015898,0.0015922,0.0007556,0.0007556,0.0007552,0.0007556,0.0007542,0.0007446,0.0007452,0.0007464,0.0007464,0.0007482,0.00945,0.009278,0.009448,0.009272,0.009266,0.00925,0.00925,0.009432,0.009278,0.009286
594,0.006956,0.006734,0.006952,0.006626,0.006602,0.00695,0.006956,0.006628,0.006982,0.00698,0.0016824,0.00168,0.0016826,0.001679,0.001682,0.0016668,0.0016698,0.0016734,0.0016762,0.0016782,0.000961,0.0009616,0.0009606,0.0009618,0.0009602,0.0009468,0.000948,0.0009506,0.0009504,0.0009522,0.009124,0.008968,0.009122,0.008964,0.008958,0.008932,0.008942,0.00911,0.00897,0.008976
596,0.005664,0.00547,0.005664,0.00538,0.00536,0.005656,0.005672,0.005388,0.005702,0.005694,0.0016628,0.0016616,0.001663,0.0016596,0.001661,0.001648,0.0016536,0.0016576,0.0016594,0.0016592,0.0012074,0.0012076,0.001207,0.0012082,0.001206,0.00119,0.0011926,0.001195,0.0011942,0.0011962,0.008728,0.008598,0.008726,0.008588,0.008588,0.008552,0.008566,0.008714,0.008586,0.008584
598,0.004406,0.00428,0.004406,0.004222,0.004212,0.004402,0.00442,0.00424,0.00444,0.004432,0.0015952,0.001594,0.0015958,0.0015924,0.0015938,0.001583,0.0015884,0.0015898,0.0015926,0.0015902,0.001444,0.0014442,0.0014428,0.0014442,0.001442,0.0014246,0.0014282,0.0014298,0.0014276,0.0014286,0.00835,0.008238,0.008348,0.008232,0.00823,0.008196,0.00821,0.008334,0.00822,0.00821
600,0.003278,0.003212,0.003278,0.003182,0.003172,0.003284,0.003298,0.003202,0.00331,0.0033,0.0015284,0.0015262,0.0015282,0.0015252,0.0015274,0.001518,0.0015226,0.0015232,0.0015244,0.001522,0.00168,0.00168,0.001678,0.0016794,0.0016766,0.0016608,0.0016628,0.001664,0.0016612,0.0016612,0.007978,0.007878,0.007976,0.007874,0.00787,0.007852,0.007858,0.007956,0.007854,0.00784
602,0.002334,0.002304,0.002334,0.00229,0.002286,0.00235,0.002354,0.002312,0.00236,0.002352,0.001543,0.0015416,0.001543,0.0015396,0.0015416,0.0015328,0.0015332,0.001534,0.0015344,0.001533,0.0019076,0.0019068,0.0019046,0.0019062,0.0019032,0.0018906,0.0018908,0.0018914,0.0018872,0.0018878,0.007612,0.007528,0.00761,0.007524,0.007522,0.00752,0.007518,0.007592,0.007504,0.007494
604,0.0015834,0.001572,0.0015822,0.0015652,0.0015604,0.001604,0.0016022,0.001587,0.0016058,0.0016004,0.0017536,0.001755,0.0017542,0.0017498,0.0017516,0.0017394,0.0017356,0.0017356,0.0017374,0.0017366,0.002122,0.00212,0.002118,0.002118,0.002116,0.002108,0.002106,0.002106,0.0021,0.002102,0.007252,0.007182,0.00725,0.00718,0.007178,0.007186,0.007174,0.00724,0.007168,0.007158
606,0.0009832,0.000977,0.000981,0.0009766,0.0009716,0.000999,0.0009976,0.0009914,0.001,0.0009964,0.002276,0.002276,0.002276,0.002272,0.002276,0.002252,0.002246,0.002246,0.002248,0.00225,0.002324,0.002322,0.00232,0.002322,0.002318,0.002312,0.002308,0.00231,0.002306,0.00231,0.006842,0.006782,0.006842,0.00678,0.00678,0.006792,0.006778,0.006838,0.00678,0.00678
608,0.0006568,0.0006552,0.0006558,0.0006546,0.0006518,0.000665,0.000665,0.0006608,0.0006666,0.000665,0.003024,0.003028,0.003024,0.00302,0.003024,0.002984,0.002978,0.002984,0.002986,0.00299,0.002452,0.00245,0.002448,0.00245,0.002446,0.002442,0.002438,0.00244,0.002438,0.002444,0.00638,0.006322,0.006382,0.006322,0.00632,0.006328,0.006318,0.006382,0.006332,0.006338
610,0.000532,0.0005304,0.0005278,0.000532,0.0005292,0.0005338,0.0005342,0.0005324,0.0005354,0.0005346,0.003884,0.00389,0.003886,0.00388,0.003884,0.003826,0.003826,0.003832,0.00384,0.003844,0.002482,0.00248,0.002478,0.00248,0.002478,0.002472,0.00247,0.002474,0.002472,0.002478,0.005794,0.005732,0.005796,0.005734,0.00573,0.005736,0.005732,0.005802,0.005752,0.00576
612,0.00049,0.0004884,0.000487,0.0004918,0.0004874,0.0004878,0.0004874,0.0004874,0.0004904,0.0004888,0.00479,0.004794,0.004792,0.004784,0.004788,0.004712,0.004716,0.004728,0.004736,0.004744,0.0024,0.0024,0.002398,0.0024,0.002398,0.00239,0.002392,0.002394,0.002394,0.002402,0.005086,0.005026,0.00509,0.005032,0.00503,0.005026,0.005028,0.0051,0.005054,0.005058
614,0.000475,0.000475,0.000471,0.0004756,0.0004718,0.0004722,0.0004732,0.0004732,0.0004742,0.0004734,0.005672,0.005676,0.005674,0.005666,0.005672,0.005578,0.00559,0.005606,0.005614,0.00562,0.002208,0.002208,0.002206,0.002208,0.002206,0.002198,0.002202,0.002204,0.002206,0.002212,0.004322,0.004276,0.004328,0.00428,0.004278,0.004276,0.00428,0.004338,0.0043,0.004296
616,0.0004704,0.0004708,0.0004686,0.000472,0.00047,0.0004692,0.0004706,0.000472,0.0004714,0.0004716,0.00653,0.006534,0.00653,0.006518,0.006526,0.00643,0.00645,0.006464,0.006468,0.006472,0.0018814,0.0018818,0.0018808,0.001882,0.0018796,0.0018756,0.001882,0.0018848,0.0018848,0.0018886,0.003478,0.003446,0.003484,0.003446,0.003448,0.00345,0.003456,0.003496,0.003464,0.003462
618,0.000478,0.0004776,0.000476,0.000477,0.000479,0.0004758,0.000479,0.000478,0.0004788,0.0004782,0.007178,0.007182,0.007178,0.007164,0.007172,0.007086,0.007106,0.00712,0.007122,0.007118,0.0014978,0.001497,0.0014966,0.0014976,0.0014952,0.001499,0.001505,0.001506,0.0015048,0.0015058,0.002676,0.002654,0.002682,0.002658,0.002654,0.002668,0.002668,0.002696,0.002674,0.00267
620,0.000497,0.0004952,0.0004944,0.0004956,0.0004956,0.0004954,0.0004972,0.0004964,0.0004944,0.0004936,0.007568,0.00757,0.00757,0.007554,0.007562,0.007494,0.007514,0.007522,0.007518,0.007512,0.0011108,0.0011096,0.0011088,0.0011094,0.0011078,0.0011188,0.0011216,0.001122,0.0011202,0.0011196,0.0019596,0.0019444,0.001963,0.0019454,0.001943,0.0019614,0.0019596,0.0019784,0.0019646,0.0019606
622,0.0005344,0.0005312,0.0005308,0.0005336,0.0005326,0.0005318,0.0005346,0.0005342,0.0005298,0.0005304,0.007758,0.00776,0.007762,0.007748,0.007752,0.007706,0.00772,0.007724,0.007714,0.007704,0.0007556,0.000755,0.0007536,0.0007546,0.000753,0.0007658,0.0007668,0.0007658,0.0007644,0.0007636,0.001328,0.0013196,0.0013326,0.0013182,0.0013168,0.001336,0.0013328,0.0013452,0.0013354,0.0013334
624,0.000596,0.000593,0.0005926,0.0005958,0.000592,0.0005924,0.0005952,0.000593,0.0005894,0.0005918,0.007768,0.00777,0.007774,0.007768,0.007766,0.007738,0.007742,0.007742,0.007728,0.00772,0.000528,0.0005278,0.0005266,0.0005284,0.0005268,0.0005332,0.0005332,0.000532,0.0005312,0.000531,0.000893,0.0008876,0.000899,0.0008914,0.00089,0.0008988,0.0008962,0.000902,0.000896,0.0008956
626,0.0006928,0.0006922,0.00069,0.0006946,0.0006882,0.0006884,0.0006916,0.0006886,0.0006838,0.0006866,0.007624,0.007622,0.007634,0.007628,0.007624,0.007608,0.007598,0.007596,0.007584,0.007578,0.0005492,0.0005498,0.0005478,0.0005496,0.0005492,0.0005432,0.000542,0.0005416,0.0005418,0.0005428,0.0007976,0.0007966,0.0008036,0.0007988,0.0008042,0.0007954,0.000788,0.0007928,0.000794,0.0007968
628,0.0008154,0.0008138,0.000813,0.0008144,0.0008116,0.000806,0.0008086,0.000807,0.0008018,0.0008054,0.007378,0.007376,0.007388,0.007388,0.00738,0.007356,0.00734,0.007338,0.007334,0.007334,0.0008018,0.0008032,0.0007996,0.000802,0.000802,0.0007842,0.0007838,0.0007844,0.0007846,0.0007868,0.0010286,0.0010378,0.0010356,0.0010346,0.0010354,0.0010168,0.0010062,0.0010124,0.0010124,0.0010172
630,0.0009434,0.0009416,0.000942,0.0009428,0.0009436,0.0009298,0.0009338,0.0009314,0.0009288,0.0009326,0.007094,0.007094,0.007106,0.007106,0.007098,0.007052,0.00704,0.007046,0.007048,0.007052,0.0011412,0.0011422,0.001138,0.0011408,0.0011406,0.001114,0.001114,0.0011166,0.0011174,0.0011204,0.0013828,0.0013902,0.0013886,0.0013914,0.0013924,0.0013604,0.0013546,0.001359,0.0013586,0.0013656
632,0.001076,0.0010754,0.0010734,0.0010744,0.0010724,0.0010564,0.0010598,0.0010596,0.0010604,0.0010634,0.006784,0.006784,0.006794,0.006792,0.006786,0.00672,0.006718,0.00673,0.006736,0.006746,0.0015054,0.0015062,0.0015022,0.001505,0.0015046,0.0014698,0.0014728,0.001477,0.0014776,0.0014818,0.0017686,0.0017798,0.0017742,0.0017746,0.0017798,0.0017394,0.0017364,0.00174,0.0017446,0.0017506
634,0.0012108,0.0012062,0.001207,0.0012054,0.0012042,0.0011838,0.0011924,0.0011948,0.0011928,0.0011982,0.006456,0.006456,0.006466,0.006464,0.006458,0.006378,0.006388,0.006408,0.006418,0.006426,0.0018722,0.0018734,0.0018696,0.001872,0.0018706,0.0018316,0.001837,0.0018442,0.001844,0.0018478,0.00216,0.002174,0.002166,0.002164,0.002168,0.002128,0.002128,0.002132,0.002136,0.002142
636,0.0013492,0.0013472,0.0013484,0.001349,0.0013446,0.0013248,0.0013366,0.0013396,0.001337,0.0013396,0.006086,0.006084,0.006096,0.006092,0.006084,0.006012,0.006036,0.006058,0.006064,0.00607,0.002266,0.002266,0.002262,0.002266,0.002262,0.002224,0.002232,0.002238,0.002238,0.002242,0.002582,0.002594,0.002588,0.002588,0.002598,0.002554,0.002558,0.00256,0.002562,0.002562
638,0.0014726,0.0014674,0.0014688,0.0014706,0.0014692,0.0014502,0.0014622,0.0014718,0.001467,0.0014662,0.005756,0.005754,0.005764,0.005758,0.005754,0.005702,0.005728,0.005748,0.005752,0.00575,0.002608,0.002608,0.002604,0.002606,0.002604,0.00257,0.00258,0.002586,0.002584,0.002586,0.00295,0.002964,0.002956,0.002956,0.002962,0.002924,0.002936,0.002934,0.00293,0.002932
640,0.0015898,0.0015854,0.00159,0.0015874,0.0015894,0.0015732,0.0015858,0.0015892,0.0015838,0.0015854,0.00547,0.005466,0.005478,0.005472,0.00547,0.005442,0.005466,0.00548,0.005476,0.005472,0.002896,0.002896,0.002892,0.002896,0.002892,0.002868,0.002876,0.002882,0.002878,0.002876,0.003242,0.003256,0.00325,0.003246,0.003252,0.003236,0.00324,0.00324,0.003232,0.003226
642,0.0017068,0.0017014,0.0017038,0.001701,0.001704,0.0016944,0.0017044,0.0017052,0.0016998,0.001698,0.005218,0.005216,0.005226,0.00522,0.005218,0.00521,0.005228,0.005234,0.005224,0.005218,0.003112,0.00311,0.003108,0.00311,0.003108,0.003094,0.0031,0.003104,0.003096,0.003092,0.003416,0.003428,0.003426,0.003426,0.003424,0.003424,0.003428,0.00342,0.00341,0.003402
644,0.0018206,0.0018168,0.001817,0.0018146,0.0018152,0.0018128,0.001819,0.0018172,0.001812,0.0018102,0.005008,0.005006,0.005018,0.005012,0.00501,0.005014,0.005022,0.00502,0.00501,0.005,0.003248,0.003248,0.003246,0.003248,0.003244,0.00324,0.00324,0.003242,0.003232,0.003228,0.003476,0.003488,0.003484,0.003478,0.003484,0.003482,0.003488,0.003474,0.00346,0.003458
646,0.0019506,0.0019498,0.001952,0.0019492,0.0019484,0.0019414,0.0019444,0.001944,0.0019378,0.001935,0.004814,0.00481,0.00482,0.004816,0.004816,0.004816,0.004812,0.004806,0.004794,0.004788,0.003314,0.003314,0.003312,0.003314,0.003312,0.003306,0.003304,0.003304,0.003294,0.00329,0.003472,0.003484,0.003478,0.003474,0.003474,0.00347,0.003468,0.003458,0.003448,0.003446
648,0.002066,0.002064,0.002068,0.002064,0.002066,0.002054,0.002052,0.002054,0.002044,0.002044,0.004664,0.00466,0.00467,0.004666,0.004662,0.004654,0.00464,0.004634,0.004624,0.004626,0.003332,0.003332,0.003332,0.003332,0.00333,0.003318,0.003312,0.00331,0.003304,0.003302,0.003452,0.003462,0.003458,0.003452,0.003458,0.003436,0.003438,0.003424,0.003414,0.00342
650,0.002156,0.002154,0.00216,0.002154,0.002154,0.002136,0.00213,0.002132,0.002128,0.002128,0.004492,0.004488,0.004498,0.004494,0.004492,0.004464,0.004454,0.004446,0.004444,0.004448,0.00331,0.00331,0.003312,0.003312,0.00331,0.003286,0.00328,0.00328,0.003274,0.003276,0.003394,0.003406,0.0034,0.003394,0.003402,0.003364,0.003368,0.00336,0.003352,0.003358
652,0.00221,0.002208,0.002212,0.002208,0.002206,0.002182,0.002178,0.002178,0.00218,0.002182,0.004276,0.00427,0.004282,0.004276,0.004274,0.004232,0.004224,0.004226,0.004224,0.004232,0.003222,0.003222,0.003224,0.003224,0.003222,0.003188,0.003184,0.003186,0.003184,0.003188,0.003272,0.00328,0.003276,0.003272,0.003278,0.003234,0.003238,0.003238,0.00323,0.00324
654,0.002244,0.002236,0.002244,0.002236,0.002236,0.002208,0.002208,0.002214,0.002218,0.002216,0.004044,0.004042,0.00405,0.004044,0.00404,0.00399,0.003992,0.004,0.004,0.00401,0.003046,0.003046,0.003046,0.003048,0.003046,0.00301,0.00301,0.003012,0.003012,0.00302,0.003054,0.003058,0.003062,0.003052,0.003056,0.003014,0.003028,0.00303,0.003024,0.00303
656,0.00227,0.002266,0.00227,0.002262,0.002264,0.002234,0.00224,0.002246,0.002254,0.00225,0.003814,0.00381,0.003816,0.003812,0.003812,0.003766,0.003772,0.003782,0.003784,0.003792,0.00273,0.00273,0.002728,0.00273,0.002728,0.002698,0.002704,0.00271,0.002712,0.002716,0.002708,0.002708,0.002708,0.002698,0.002704,0.002676,0.002694,0.002694,0.002686,0.00269
658,0.002296,0.002292,0.002296,0.00229,0.002288,0.00226,0.002272,0.002282,0.002286,0.002284,0.00364,0.00364,0.003644,0.003638,0.003636,0.003604,0.003616,0.003628,0.003628,0.003632,0.00237,0.002368,0.00237,0.00237,0.002368,0.002352,0.002358,0.002364,0.002364,0.002368,0.002342,0.002342,0.002346,0.002332,0.002344,0.00233,0.002346,0.002346,0.002338,0.002338
660,0.002322,0.002314,0.00232,0.002316,0.00231,0.002294,0.002306,0.002318,0.00232,0.002316,0.003496,0.003496,0.003498,0.003492,0.003492,0.003474,0.00349,0.003498,0.003494,0.003498,0.0019884,0.0019876,0.0019886,0.001988,0.0019866,0.001983,0.001991,0.0019946,0.0019946,0.001994,0.0019756,0.0019742,0.0019772,0.001967,0.0019764,0.0019728,0.0019872,0.001985,0.0019774,0.0019726
662,0.00233,0.00233,0.002334,0.002322,0.002324,0.002314,0.002328,0.002336,0.002336,0.002332,0.003364,0.00336,0.003368,0.00336,0.003358,0.003354,0.003368,0.003374,0.00337,0.003368,0.0016078,0.0016068,0.001609,0.0016076,0.0016074,0.0016124,0.0016182,0.0016212,0.001618,0.0016168,0.001607,0.0016074,0.001609,0.0016006,0.0016118,0.0016202,0.001631,0.0016236,0.0016208,0.001614
664,0.00231,0.002306,0.002312,0.002302,0.002302,0.002306,0.002316,0.002316,0.002316,0.002308,0.003202,0.003202,0.003206,0.0032,0.0032,0.003204,0.003214,0.00322,0.00321,0.003206,0.0012174,0.001215,0.0012184,0.001217,0.0012154,0.0012282,0.0012298,0.0012298,0.001228,0.0012252,0.0012256,0.001227,0.0012306,0.001223,0.0012266,0.0012402,0.001244,0.0012428,0.0012376,0.0012316
666,0.002198,0.002196,0.0022,0.00219,0.002192,0.0022,0.002204,0.002202,0.002206,0.002196,0.002958,0.002958,0.00296,0.002958,0.002956,0.00297,0.002974,0.002974,0.002966,0.002958,0.0008404,0.0008402,0.000842,0.0008406,0.0008412,0.0008526,0.000852,0.0008518,0.0008504,0.0008484,0.000864,0.0008588,0.0008644,0.0008634,0.0008662,0.0008748,0.0008778,0.0008728,0.0008644,0.0008618
668,0.002004,0.002004,0.00201,0.0019992,0.0019948,0.002008,0.002008,0.002006,0.002004,0.0019986,0.002648,0.002646,0.002652,0.002646,0.002646,0.002662,0.002656,0.002658,0.00265,0.002646,0.0005378,0.0005366,0.0005388,0.0005378,0.0005376,0.0005476,0.000545,0.000545,0.0005434,0.0005432,0.0005662,0.0005618,0.0005646,0.0005636,0.000565,0.000579,0.0005828,0.0005722,0.0005686,0.000567
670,0.001763,0.0017608,0.001768,0.0017596,0.0017518,0.0017656,0.0017616,0.0017644,0.0017598,0.0017568,0.002296,0.002294,0.002296,0.002292,0.002292,0.002304,0.002296,0.002298,0.002292,0.002288,0.0003194,0.0003188,0.0003216,0.0003202,0.0003204,0.0003256,0.000323,0.0003228,0.0003226,0.0003212,0.0003514,0.0003468,0.000346,0.0003476,0.0003464,0.0003558,0.0003622,0.000353,0.0003522,0.0003514
672,0.0014948,0.0014924,0.0014992,0.001494,0.0014848,0.0015012,0.0014916,0.001494,0.001492,0.0014906,0.0019256,0.001923,0.0019264,0.0019208,0.0019198,0.0019294,0.0019204,0.0019246,0.0019188,0.0019162,0.000206,0.0002058,0.0002084,0.0002066,0.0002058,0.0002094,0.0002054,0.0002066,0.000206,0.0002066,0.0002436,0.000241,0.000235,0.0002346,0.0002374,0.0002414,0.0002432,0.0002374,0.0002354,0.0002346
674,0.0011804,0.001183,0.0011866,0.0011754,0.0011736,0.0011836,0.0011734,0.0011738,0.0011778,0.001179,0.001512,0.0015092,0.001511,0.0015072,0.0015064,0.0015114,0.0015054,0.00151,0.0015086,0.0015086,0.00016102,0.00015994,0.00016304,0.0001618,0.00016146,0.00016202,0.00015896,0.00016006,0.00015934,0.00016066,0.00019868,0.00018768,0.00019026,0.00019612,0.00019274,0.00019366,0.0002068,0.00019306,0.00019748,0.00019372
676,0.0008928,0.0008898,0.0008936,0.0008896,0.000887,0.0008954,0.0008856,0.000889,0.0008926,0.0008954,0.0011402,0.001141,0.0011394,0.0011372,0.0011368,0.0011424,0.0011362,0.0011418,0.001144,0.001142,0.00014622,0.000146,0.0001484,0.0001464,0.00014666,0.0001468,0.0001448,0.00014532,0.00014466,0.0001461,0.00018166,0.00018132,0.000176,0.0001757,0.0001811,0.00018308,0.00019056,0.00018102,0.00018328,0.00018162
678,0.0006228,0.0006228,0.000626,0.0006236,0.0006168,0.0006302,0.0006216,0.0006268,0.0006278,0.0006282,0.0008068,0.0008058,0.000806,0.0008036,0.0008014,0.0008128,0.0008056,0.0008124,0.0008152,0.0008102,0.0001384,0.00013868,0.0001405,0.00013846,0.00013896,0.00013804,0.00013628,0.00013786,0.00013784,0.00013998,0.00017822,0.00017614,0.00017036,0.0001728,0.00017004,0.00017818,0.00018042,0.00017572,0.00017878,0.00017522
680,0.000396,0.0003992,0.0004018,0.0004006,0.000392,0.000407,0.000399,0.0004022,0.0004034,0.0004034,0.0005282,0.0005276,0.0005248,0.0005238,0.0005236,0.0005336,0.0005304,0.0005324,0.0005366,0.0005348,0.00013344,0.00013196,0.00013596,0.00013314,0.00013304,0.00013452,0.00013188,0.00013386,0.000134,0.0001355,0.00017216,0.00016934,0.00016828,0.00016318,0.00015994,0.00017232,0.0001799,0.0001735,0.0001753,0.00017166
682,0.000251,0.000253,0.0002562,0.000258,0.000244,0.0002598,0.0002488,0.000253,0.0002514,0.000258,0.000347,0.0003474,0.0003426,0.0003378,0.0003406,0.0003464,0.0003458,0.0003472,0.0003502,0.0003474,0.00013104,0.00012972,0.00013294,0.00013036,0.00013064,0.0001323,0.00013046,0.0001322,0.00013078,0.00013356,0.00017278,0.00016496,0.00016436,0.00016826,0.00015964,0.00017214,0.00018238,0.00016688,0.00017594,0.0001714
684,0.00018578,0.00018816,0.0001906,0.00019182,0.00017478,0.0001932,0.00018358,0.00018708,0.00018374,0.00018546,0.0002626,0.0002618,0.0002594,0.0002564,0.0002588,0.000261,0.000259,0.0002628,0.0002654,0.0002636,0.00012846,0.00012814,0.00013174,0.00012938,0.00012746,0.00012994,0.00012808,0.00012932,0.00012926,0.00013012,0.00017546,0.0001662,0.00016466,0.00016818,0.0001629,0.00017266,0.00017836,0.00016892,0.00017192,0.00016982
686,0.00016474,0.00016462,0.000169,0.0001708,0.00015478,0.00017272,0.00016512,0.00017062,0.00016598,0.00016612,0.000231,0.0002306,0.0002266,0.0002266,0.0002264,0.000231,0.0002314,0.0002332,0.0002312,0.0002318,0.0001238,0.0001234,0.00012606,0.0001223,0.00012178,0.00012498,0.00012296,0.0001241,0.00012406,0.000125,0.00017072,0.00016526,0.00016134,0.00016816,0.0001527,0.00016426,0.0001718,0.00016252,0.00017204,0.00016488
688,0.0001536,0.00015694,0.00015692,0.00016192,0.0001483,0.0001657,0.0001569,0.0001563,0.00015458,0.0001576,0.0002128,0.0002104,0.0002078,0.0002084,0.00021,0.0002126,0.000211,0.0002134,0.0002118,0.0002108,0.00011702,0.00011626,0.00011948,0.00011708,0.00011602,0.00011842,0.00011686,0.00011646,0.00011694,0.00011854,0.00016688,0.00016582,0.0001522,0.00015686,0.00015048,0.00015826,0.0001618,0.00015532,0.00016616,0.00015718
690,0.00014818,0.00015272,0.00014954,0.0001463,0.00013992,0.000156,0.00014992,0.00015062,0.00014162,0.0001441,0.000201,0.00019628,0.00019212,0.0001893,0.000194,0.00019778,0.00019546,0.0001948,0.00019688,0.00019604,0.00011022,0.00010932,0.00011272,0.00011132,0.00010854,0.00011136,0.00011212,0.00011194,0.00011088,0.00011334,0.0001606,0.00015314,0.00014824,0.00015522,0.00014328,0.00015136,0.00015756,0.00014684,0.00015694,0.00015274
692,0.0001385,0.00013592,0.00014058,0.00013942,0.0001298,0.00014268,0.00013724,0.0001417,0.0001325,0.00013834,0.00017854,0.00017872,0.00017634,0.00017754,0.00017622,0.00018166,0.00017754,0.00017902,0.00018044,0.00017614,0.0001031,0.00010262,0.00010384,0.00010436,0.00010138,0.00010374,0.00010438,0.0001035,0.00010226,0.00010386,0.0001522,0.0001513,0.00014236,0.00014738,0.00014576,0.00013932,0.00015428,0.00014396,0.00015448,0.00014682
694,0.00013398,0.00012854,0.00012816,0.00013136,0.0001238,0.000138,0.00012984,0.00013262,0.00012326,0.00012496,0.00016688,0.00016136,0.00016464,0.00016272,0.00016406,0.0001674,0.00016268,0.00016512,0.0001667,0.00016238,9.502e-05,9.37e-05,9.636e-05,9.484e-05,9.482e-05,9.64e-05,9.498e-05,9.602e-05,9.43e-05,9.564e-05,0.00014536,0.00014286,0.0001348,0.00013686,0.00013256,0.0001363,0.00014426,0.0001346,0.0001473,0.00013884
696,0.00012484,0.00011744,0.00012074,0.000127,0.00011188,0.00013008,0.00012246,0.00012218,0.0001144,0.00011766,0.0001531,0.00014846,0.00014846,0.00014712,0.00014932,0.00015208,0.0001497,0.00014976,0.00015496,0.00015334,8.878e-05,8.712e-05,8.884e-05,8.828e-05,8.65e-05,8.776e-05,8.852e-05,9.032e-05,8.732e-05,8.948e-05,0.00013352,0.00013608,0.00013002,0.00013602,0.00012578,0.00012782,0.00013592,0.00013324,0.0001374,0.00013624
698,0.00011382,0.00011282,0.00011262,0.00011432,0.0001054,0.0001196,0.00011266,0.00011126,0.00011066,0.00011724,0.00014464,0.00014006,0.0001389,0.00013742,0.00013714,0.00014086,0.00014052,0.00013802,0.00014226,0.00013842,8.122e-05,7.924e-05,8.114e-05,8.156e-05,8.136e-05,8.16e-05,8.008e-05,8.388e-05,8.074e-05,8.184e-05,0.00012882,0.00013562,0.00012332,0.00012978,0.00011854,0.00011806,0.0001244,0.00012604,0.00012734,0.00012714
700,0.00010826,0.0001084,0.00010738,0.00010766,9.862e-05,0.0001107,0.00010784,0.00010556,0.00010306,0.00010364,0.00013256,0.00013058,0.00012744,0.00012882,0.00012798,0.00012882,0.00013198,0.00012986,0.00013172,0.00012826,7.76e-05,7.484e-05,7.67e-05,7.416e-05,7.446e-05,7.61e-05,7.646e-05,7.742e-05,7.63e-05,7.6e-05,0.00012974,0.0001207,0.00011864,0.00012852,0.00011396,0.00011258,0.00012048,0.00012196,0.0001305,0.00012338
702,9.724e-05,9.966e-05,9.706e-05,9.852e-05,9.29e-05,0.0001039,9.956e-05,9.494e-05,9.784e-05,9.53e-05,0.0001215,0.00011884,0.00011894,0.00011914,0.0001171,0.00012098,0.0001217,0.00012118,0.00012458,0.00012608,7.166e-05,6.952e-05,7.15e-05,6.988e-05,6.794e-05,7.132e-05,7.182e-05,7.236e-05,7.224e-05,7.288e-05,0.00011748,0.00011854,0.00011456,0.00012332,0.00011092,0.0001138,0.00011004,0.00012132,0.00011892,0.00011834
704,9.544e-05,9.054e-05,9.588e-05,9.404e-05,8.942e-05,0.00010324,9.762e-05,9.668e-05,9.56e-05,9.596e-05,0.00011462,0.0001133,0.000113,0.00011794,0.00011484,0.00011062,0.00011658,0.00011234,0.0001201,0.00011798,6.594e-05,6.55e-05,6.704e-05,6.532e-05,6.454e-05,6.706e-05,6.684e-05,6.94e-05,6.682e-05,6.92e-05,0.00011468,0.00011686,0.00011542,0.00012014,0.0001115,9.976e-05,0.00011276,0.0001182,0.00010922,0.00011944
706,9.12e-05,8.894e-05,9.12e-05,9.032e-05,9.168e-05,9.868e-05,9.524e-05,9.122e-05,8.826e-05,8.68e-05,0.00010948,0.00010596,0.00010638,0.0001115,0.00011,0.00010854,0.00010794,0.00010926,0.00011296,0.00011578,6.22e-05,6.276e-05,6.364e-05,6.1e-05,6.234e-05,6.442e-05,6.466e-05,6.58e-05,6.536e-05,6.548e-05,0.00011366,0.00011264,0.00011664,0.00011902,0.00010656,9.832e-05,0.00010882,0.00011384,0.00010608,0.00012028
708,8.474e-05,8.702e-05,8.682e-05,8.614e-05,9.444e-05,9.84e-05,9.1e-05,9.154e-05,9.026e-05,8.986e-05,0.00010606,0.0001038,0.00010376,0.00010834,0.00010672,0.00010676,0.0001097,0.00010896,0.0001076,0.0001097,5.918e-05,6.058e-05,6.01e-05,5.78e-05,6.084e-05,6.034e-05,6.152e-05,6.304e-05,6.302e-05,6.16e-05,0.0001069,0.00010786,0.000113,0.00011638,0.00010584,9.974e-05,9.526e-05,0.00011356,0.00010438,0.0001208
710,8.828e-05,8.982e-05,8.288e-05,8.292e-05,9.026e-05,9.31e-05,9.108e-05,9.542e-05,8.606e-05,8.766e-05,0.0001023,0.00010026,0.00010556,0.00010764,0.00010396,0.00011394,0.00011072,0.00010154,0.00010764,0.00010862,5.852e-05,5.666e-05,5.638e-05,5.538e-05,5.798e-05,5.696e-05,5.886e-05,6.232e-05,6.1e-05,5.87e-05,0.00010584,0.00010994,0.00011276,0.0001198,0.00010872,9.424e-05,8.826e-05,0.00011272,9.97e-05,0.00010834
712,8.918e-05,9.078e-05,7.93e-05,8.338e-05,9.136e-05,8.772e-05,8.996e-05,8.914e-05,8.724e-05,7.6e-05,0.00010482,9.8e-05,0.00010256,0.00010628,0.00010108,0.00010744,0.00010636,0.0001051,0.00010072,0.0001072,5.694e-05,5.552e-05,5.552e-05,5.424e-05,5.678e-05,5.702e-05,5.76e-05,6.132e-05,5.828e-05,5.8e-05,0.00010292,0.0001058,0.00011018,0.00011418,0.00011016,9.308e-05,9.206e-05,0.000109,0.00010158,0.00011356
714,8.326e-05,8.554e-05,7.478e-05,7.606e-05,9.41e-05,8.924e-05,8.618e-05,8.802e-05,8.716e-05,7.796e-05,0.00010198,9.886e-05,9.996e-05,0.00010394,0.0001008,0.00010598,0.00010314,0.00010554,0.00010128,0.00010516,5.538e-05,5.41e-05,5.236e-05,5.256e-05,5.562e-05,5.468e-05,5.488e-05,5.79e-05,5.684e-05,5.434e-05,9.546e-05,0.00011408,0.00010912,0.00010476,0.00010814,9.048e-05,8.036e-05,0.00010748,0.00010208,0.00010924
716,8.23e-05,8.38e-05,7.358e-05,7.246e-05,8.774e-05,8.72e-05,8.202e-05,8.216e-05,8.426e-05,8.202e-05,9.658e-05,9.386e-05,9.272e-05,0.00010204,9.762e-05,0.00010312,9.938e-05,0.00010186,9.928e-05,0.00010454,5.12e-05,5.234e-05,5.022e-05,4.982e-05,5.212e-05,5.294e-05,5.31e-05,5.684e-05,5.336e-05,5.206e-05,9.136e-05,0.0001074,0.0001028,9.59e-05,0.0001047,9.118e-05,6.806e-05,0.00010582,9.692e-05,9.856e-05
718,7.792e-05,7.682e-05,7.35e-05,7.18e-05,8.048e-05,7.798e-05,8.042e-05,7.316e-05,7.83e-05,7.196e-05,9.218e-05,9.024e-05,9.056e-05,9.512e-05,8.968e-05,9.87e-05,9.6e-05,9.42e-05,9.508e-05,9.496e-05,4.91e-05,4.752e-05,4.666e-05,4.762e-05,5.028e-05,5.028e-05,4.954e-05,5.146e-05,5.066e-05,5.12e-05,9.086e-05,8.754e-05,9.904e-05,0.00010708,0.0001006,9.02e-05,6.044e-05,0.00010012,9.184e-05,9.632e-05
720,7.414e-05,6.97e-05,6.442e-05,6.51e-05,8.08e-05,7.092e-05,6.902e-05,6.954e-05,7.568e-05,6.896e-05,8.492e-05,8.39e-05,8.428e-05,9.094e-05,8.642e-05,9.288e-05,9.594e-05,8.738e-05,8.61e-05,9.054e-05,4.744e-05,4.494e-05,4.424e-05,4.458e-05,4.776e-05,4.798e-05,4.652e-05,4.832e-05,4.802e-05,4.604e-05,8.062e-05,9.422e-05,9.79e-05,9.856e-05,9.562e-05,8.63e-05,6.006e-05,9.64e-05,7.822e-05,8.686e-05
722,6.24e-05,7.11e-05,6.204e-05,5.132e-05,7.614e-05,6.92e-05,7.204e-05,6.37e-05,7.508e-05,6.262e-05,8.176e-05,8.18e-05,8.374e-05,8.984e-05,8.342e-05,9.172e-05,8.998e-05,8.67e-05,8.128e-05,8.908e-05,4.45e-05,4.504e-05,4.306e-05,4.248e-05,4.556e-05,4.626e-05,4.44e-05,4.546e-05,4.496e-05,4.34e-05,7.788e-05,9.156e-05,9.908e-05,8.762e-05,9.404e-05,7.546e-05,6.354e-05,9.906e-05,7.716e-05,8.452e-05
724,6.338e-05,6.21e-05,5.452e-05,4.454e-05,7.404e-05,6.794e-05,6.548e-05,5.986e-05,6.902e-05,5.48e-05,7.886e-05,7.84e-05,8.14e-05,8.63e-05,7.964e-05,8.712e-05,8.716e-05,8.354e-05,7.962e-05,8.792e-05,4.292e-05,4.388e-05,3.904e-05,4.128e-05,4.478e-05,4.528e-05,4.464e-05,4.432e-05,4.374e-05,4.458e-05,6.702e-05,8.55e-05,9.812e-05,7.756e-05,8.608e-05,8.028e-05,6.268e-05,9.274e-05,7.576e-05,8.006e-05
726,6.306e-05,4.95e-05,5.968e-05,4.552e-05,6.644e-05,6.478e-05,5.858e-05,6.498e-05,6.454e-05,5.744e-05,7.984e-05,7.672e-05,7.88e-05,8.66e-05,8.288e-05,8.456e-05,8.53e-05,8.61e-05,7.74e-05,8.596e-05,4.236e-05,4.242e-05,3.82e-05,3.94e-05,4.368e-05,4.45e-05,4.274e-05,4.362e-05,4.248e-05,4.184e-05,6.272e-05,9.59e-05,8.724e-05,7.486e-05,8.212e-05,8.434e-05,5.08e-05,8.576e-05,6.76e-05,8.36e-05
728,5.992e-05,5.44e-05,5.292e-05,5.014e-05,6.596e-05,5.122e-05,5.538e-05,6.054e-05,6.274e-05,5.832e-05,7.8e-05,8.466e-05,8.096e-05,8.622e-05,7.756e-05,7.83e-05,8.646e-05,8.648e-05,7.822e-05,8.336e-05,4.156e-05,3.876e-05,3.886e-05,4.134e-05,4.26e-05,4.586e-05,4.396e-05,4.458e-05,4.252e-05,4.3e-05,5.936e-05,9.404e-05,9.154e-05,7.682e-05,8.242e-05,7.84e-05,5.726e-05,8.556e-05,6.974e-05,7.566e-05
730,5.298e-05,5.516e-05,5.294e-05,4.45e-05,6.138e-05,4.908e-05,4.986e-05,5.086e-05,5.746e-05,6.44e-05,8.118e-05,7.76e-05,8.056e-05,8.754e-05,7.8e-05,8.154e-05,8.186e-05,8.36e-05,7.672e-05,8.062e-05,4.098e-05,4.002e-05,3.966e-05,4.1e-05,4.274e-05,4.372e-05,4.398e-05,4.432e-05,4.118e-05,4.394e-05,5.646e-05,9.018e-05,8.952e-05,8.486e-05,8.662e-05,7.782e-05,5.668e-05,8.008e-05,5.67e-05,7.678e-05
732,5.804e-05,5.28e-05,5.002e-05,4.492e-05,6.88e-05,5.336e-05,5.012e-05,5.684e-05,5.398e-05,5.852e-05,8.276e-05,8.012e-05,8.056e-05,7.944e-05,7.582e-05,8.316e-05,8.244e-05,8.528e-05,7.922e-05,8.114e-05,4.19e-05,4.282e-05,3.882e-05,3.976e-05,4.242e-05,4.6e-05,4.562e-05,4.38e-05,3.992e-05,4.43e-05,5.662e-05,8.48e-05,8.314e-05,6.856e-05,8.546e-05,7.796e-05,5.98e-05,7.004e-05,5.966e-05,7.82e-05
734,5.272e-05,4.124e-05,5.02e-05,3.946e-05,7.028e-05,4.286e-05,5.416e-05,5.362e-05,5.35e-05,5.674e-05,7.27e-05,7.896e-05,8.608e-05,8.026e-05,7.37e-05,7.946e-05,7.444e-05,7.342e-05,7.546e-05,7.82e-05,3.868e-05,4.24e-05,4e-05,3.966e-05,4.022e-05,4.408e-05,4.588e-05,4.044e-05,3.822e-05,4.462e-05,4.412e-05,8.428e-05,7.096e-05,6.018e-05,8.224e-05,8.71e-05,5.664e-05,7.458e-05,5.566e-05,7.84e-05
736,4.3e-05,4.012e-05,4.668e-05,3.926e-05,5.808e-05,3.776e-05,3.76e-05,4.466e-05,4.848e-05,4.976e-05,6.896e-05,7.35e-05,7.764e-05,7.08e-05,6.914e-05,7.612e-05,7.332e-05,7.438e-05,7.012e-05,6.254e-05,3.522e-05,3.672e-05,3.4e-05,3.448e-05,3.618e-05,4.014e-05,4.05e-05,3.292e-05,3.386e-05,3.792e-05,4.106e-05,5.912e-05,6.068e-05,5.568e-05,5.944e-05,7.18e-05,5.734e-05,5.864e-05,5.484e-05,6.276e-05
738,3.984e-05,4.156e-05,3.858e-05,2.724e-05,5.57e-05,3.384e-05,3.784e-05,4.434e-05,3.644e-05,3.996e-05,6.594e-05,6.082e-05,6.378e-05,6.526e-05,6.264e-05,6.454e-05,6.606e-05,6.982e-05,6.12e-05,6.014e-05,2.998e-05,3.07e-05,3.148e-05,3.178e-05,3.228e-05,3.674e-05,3.726e-05,3.078e-05,3.122e-05,3.524e-05,3.186e-05,5.996e-05,4.932e-05,5.024e-05,5.542e-05,7.412e-05,4.672e-05,5.196e-05,5.132e-05,5.412e-05
740,3.598e-05,3.712e-05,3.538e-05,2.45e-05,5.184e-05,2.374e-05,3.444e-05,4.37e-05,3.362e-05,3.328e-05,6.058e-05,5.856e-05,6.558e-05,5.878e-05,5.682e-05,5.872e-05,5.686e-05,5.984e-05,6.158e-05,5.686e-05,2.51e-05,2.686e-05,2.814e-05,2.85e-05,3.022e-05,3.186e-05,3.524e-05,2.708e-05,2.806e-05,3.232e-05,2.332e-05,5.266e-05,4.318e-05,3.322e-05,4.256e-05,6.758e-05,5.09e-05,5.25e-05,4.852e-05,5.14e-05
742,2.996e-05,2.328e-05,2.994e-05,3.41e-05,3.548e-05,2.08e-05,2.096e-05,3.538e-05,3.39e-05,3.658e-05,5.614e-05,5.482e-05,5.902e-05,5.594e-05,5.626e-05,5.536e-05,5.648e-05,5.532e-05,5.796e-05,5.24e-05,2.338e-05,2.424e-05,2.406e-05,2.634e-05,2.502e-05,3.146e-05,2.926e-05,2.694e-05,2.622e-05,2.856e-05,1.9092e-05,5.558e-05,3.748e-05,2.008e-05,3.892e-05,6.822e-05,4.686e-05,4.476e-05,4.738e-05,4.266e-05
744,3.012e-05,1.9964e-05,3.272e-05,2.666e-05,3.236e-05,1.72e-05,2.722e-05,1.9754e-05,2.66e-05,2.138e-05,5.416e-05,5.34e-05,6.42e-05,5.418e-05,4.95e-05,4.896e-05,5.326e-05,5.72e-05,5.822e-05,4.902e-05,1.8422e-05,2.226e-05,2.256e-05,2.56e-05,2.328e-05,2.718e-05,2.91e-05,2.174e-05,2.546e-05,2.824e-05,1.4868e-05,2.684e-05,2.282e-05,1.5702e-05,2.238e-05,6.426e-05,4.88e-05,2.932e-05,3.638e-05,3.9e-05
746,1.7492e-05,7.55e-06,2.086e-05,2.134e-05,2.132e-05,1.6112e-05,1.9852e-05,2.134e-05,1.494e-05,2.522e-05,5.302e-05,4.358e-05,6.5e-05,4.982e-05,4.66e-05,4.8e-05,4.772e-05,5.312e-05,5.094e-05,4.368e-05,1.8958e-05,2.082e-05,2.052e-05,2.318e-05,1.8556e-05,2.354e-05,2.694e-05,1.6682e-05,2.164e-05,2.47e-05,4.368e-06,2.652e-05,2.526e-05,9.55e-06,9.844e-06,5.398e-05,5.4e-05,2.834e-05,2.834e-05,2.87e-05
748,1.283e-05,9.66e-06,2.044e-05,8.174e-06,2.088e-05,1.677e-05,1.8906e-05,1.7158e-05,1.2804e-05,2.116e-05,5.204e-05,4.48e-05,6.32e-05,4.442e-05,5.074e-05,4.604e-05,5.196e-05,5.494e-05,5.44e-05,4.664e-05,1.7926e-05,1.7882e-05,2.01e-05,2.182e-05,1.9574e-05,2.314e-05,2.476e-05,1.3056e-05,1.8916e-05,1.9906e-05,4.826e-06,2.69e-05,2.498e-05,2.932e-06,1.5112e-06,5.56e-05,5.36e-05,1.4234e-05,4.112e-05,2.54e-05
750,1.2322e-05,1.9874e-05,1.7854e-05,1.2424e-05,2.908e-05,1.6356e-05,1.6896e-05,2.322e-05,1.8998e-06,2.022e-05,5.066e-05,4.706e-05,5.692e-05,4.216e-05,4.476e-05,4.978e-05,5.052e-05,4.57e-05,5.364e-05,3.746e-05,1.3994e-05,1.684e-05,2.204e-05,1.8194e-05,1.929e-05,2.41e-05,2.376e-05,1.3344e-05,1.593e-05,1.7468e-05,1.4958e-05,1.8038e-05,2.042e-05,3.924e-06,5.282e-06,5.106e-05,6.326e-05,2.156e-05,3.488e-05,3.242e-05
752,1.7372e-05,1.3522e-05,2.332e-05,1.8196e-05,1.8852e-05,1.7008e-05,2.48e-05,1.6824e-05,1.4012e-05,2.442e-05,5.728e-05,4.386e-05,5.968e-05,4.336e-05,5.096e-05,4.33e-05,4.828e-05,4.36e-05,5.156e-05,3.618e-05,1.2092e-05,1.7994e-05,2.04e-05,2.124e-05,1.7792e-05,2.248e-05,2.4e-05,1.3456e-05,1.8144e-05,1.5728e-05,1.203e-05,4.562e-05,1.8982e-05,1.558e-05,1.2568e-05,3.812e-05,7.368e-05,2.782e-05,2.262e-05,4.734e-06
754,1.334e-05,1.7036e-05,1.5824e-05,2.44e-05,2.678e-05,1.9168e-05,2.092e-05,3.282e-05,7.184e-06,2.128e-05,5.814e-05,4.476e-05,5.528e-05,3.672e-05,5.248e-05,3.734e-05,4.61e-05,5.02e-05,4.914e-05,4.006e-05,1.4934e-05,1.9386e-05,2.134e-05,1.8388e-05,1.6256e-05,2.492e-05,2.498e-05,1.293e-05,1.7114e-05,1.6958e-05,1.9026e-05,2.664e-05,2.31e-05,1.846e-06,1.224e-05,5.724e-05,7.378e-05,1.276e-05,3.274e-05,1.8446e-05
756,1.5202e-05,1.9472e-05,1.5198e-05,2.608e-05,1.058e-05,1.604e-05,2.364e-05,2.716e-05,5.318e-06,1.7e-05,5.97e-05,4.266e-05,6.32e-05,3.664e-05,4.902e-05,3.966e-05,4.676e-05,4.834e-05,5.206e-05,3.778e-05,1.3512e-05,1.8732e-05,2.08e-05,2.018e-05,1.9072e-05,2.158e-05,2.456e-05,1.2496e-05,2.038e-05,1.758e-05,1.6072e-05,3.052e-06,1.8754e-05,5.256e-06,0,6.748e-05,7.968e-05,1.285e-05,2.612e-05,1.5838e-05
758,2.012e-05,1.3432e-05,2.894e-05,3.49e-05,1.526e-05,2.654e-05,3.334e-05,4.368e-05,5.02e-06,1.5696e-05,5.84e-05,4.656e-05,6.228e-05,3.49e-05,4.946e-05,3.86e-05,4.802e-05,4.454e-05,5.148e-05,4.11e-05,1.7084e-05,1.9256e-05,2.246e-05,2.292e-05,1.8032e-05,2.164e-05,2.276e-05,1.4084e-05,1.8322e-05,1.7726e-05,2.066e-05,1.5724e-05,1.753e-05,8.412e-06,0,6.504e-05,8.632e-05,1.3532e-05,2.776e-05,1.4724e-05
760,1.549e-05,1.4862e-05,1.8624e-05,3.148e-05,4.354e-06,2.294e-05,4.078e-05,3.98e-05,3.722e-06,3.598e-06,6.246e-05,4.49e-05,6.694e-05,2.958e-05,4.084e-05,3.602e-05,4.432e-05,4.34e-05,5.358e-05,4.468e-05,1.826e-05,1.9672e-05,2.698e-05,2.646e-05,1.7914e-05,2.564e-05,2.046e-05,1.0466e-05,1.643e-05,1.7726e-05,2.626e-05,2.926e-05,2.438e-05,1.8488e-05,1.1302e-06,5.576e-05,8.908e-05,3.086e-05,4.7e-05,2.288e-05
762,2.762e-05,2.294e-05,1.6622e-05,2.88e-05,2.012e-05,2.46e-05,3.12e-05,4.286e-05,2.11e-06,4.192e-06,5.286e-05,5.164e-05,5.482e-05,4.23e-05,4.628e-05,3.772e-05,4.714e-05,4.222e-05,6.226e-05,3.684e-05,1.5118e-05,2.16e-05,2.208e-05,2.096e-05,1.313e-05,2.938e-05,2.456e-05,1.42e-05,1.3838e-05,1.4692e-05,5.194e-05,1.4856e-05,2.376e-05,3.784e-05,1.9442e-05,3.632e-05,0.00010514,8.604e-06,4.51e-05,1.6438e-05
764,3.802e-05,3.014e-05,1.6762e-05,2.668e-05,7.394e-06,2.376e-05,3.756e-05,3.276e-05,1.1646e-05,1.5782e-05,5.148e-05,4.558e-05,5.278e-05,3.102e-05,5.126e-05,3.716e-05,4.342e-05,4.754e-05,6.004e-05,3.628e-05,1.4584e-05,2.27e-05,2.102e-05,2.162e-05,1.9132e-05,2.684e-05,2.402e-05,1.4224e-05,1.5536e-05,2.096e-05,5.312e-05,2.776e-05,4.054e-05,4.702e-05,2.292e-05,5.658e-05,0.00010758,1.805e-05,6.212e-05,1.0166e-05
766,3.522e-05,3.716e-05,2.954e-05,3.114e-05,1.7964e-05,2.642e-05,4.86e-05,4.356e-05,1.3034e-05,2.136e-05,5.976e-05,3.402e-05,5.928e-05,1.7062e-05,4.064e-05,3.134e-05,3.494e-05,4.068e-05,6.642e-05,4.612e-05,1.5474e-05,2.26e-05,2.358e-05,2.724e-05,1.5898e-05,2.686e-05,2.436e-05,1.5052e-05,1.5808e-05,2.396e-05,5.73e-05,3.956e-05,3.9e-05,3.768e-05,1.986e-05,7.022e-05,0.00010914,2.106e-05,7.118e-05,2.152e-05
768,3.412e-05,5.828e-05,1.6888e-05,4.072e-05,2.326e-05,3.374e-05,5.676e-05,3.248e-05,6.476e-06,1.3508e-05,4.696e-05,3.918e-05,6.47e-05,2.224e-05,4.768e-05,3.058e-05,3.738e-05,2.944e-05,6.416e-05,4.728e-05,1.6876e-05,2.73e-05,1.8662e-05,2.09e-05,1.3792e-05,2.46e-05,2.674e-05,1.743e-05,2.01e-05,2.35e-05,6.44e-05,3.866e-05,4.082e-05,7.884e-05,2.984e-05,6.674e-05,8.766e-05,5.21e-05,6.674e-05,3.746e-05
770,4.762e-05,2.132e-05,2.37e-06,4.564e-05,1.1996e-05,3.736e-05,6.066e-05,3.702e-05,1.548e-05,1.3232e-05,4.382e-05,3.586e-05,5.158e-05,2.374e-05,3.454e-05,3.902e-05,4.58e-05,3.492e-05,7.472e-05,4.1e-05,1.6254e-05,2.028e-05,1.8318e-05,2.35e-05,1.3034e-05,3.24e-05,2.338e-05,1.309e-05,1.8606e-05,2.314e-05,7.438e-05,4.088e-05,3.916e-05,7.776e-05,3.102e-05,6.318e-05,0.00011004,5.736e-05,7.526e-05,4.022e-05
772,3.984e-05,3.872e-05,1.1768e-05,5.204e-05,2.758e-05,3.846e-05,5.568e-05,4.056e-05,0,1.9368e-05,4.332e-05,4.218e-05,5.698e-05,2.852e-05,2.958e-05,3.68e-05,4.54e-05,3.618e-05,7.168e-05,3.618e-05,1.9626e-05,1.5372e-05,1.753e-05,2.354e-05,1.2548e-05,3.236e-05,1.987e-05,1.6764e-05,2.116e-05,2.46e-05,7.912e-05,3.66e-05,4.952e-05,9.91e-05,3.884e-05,7.25e-05,0.00010714,6.62e-05,7.214e-05,3.736e-05
774,3.312e-05,3.722e-05,2.098e-05,5.822e-05,2.306e-05,3.794e-05,5.096e-05,4.33e-05,5.266e-06,3.742e-05,4.318e-05,3.4e-05,4.248e-05,3.222e-05,3.044e-05,2.682e-05,4.122e-05,3.35e-05,7.73e-05,6.114e-05,1.607e-05,1.9074e-05,1.3928e-05,1.893e-05,7.122e-06,2.764e-05,1.9298e-05,1.6432e-05,2.344e-05,2.42e-05,9.078e-05,6.236e-05,6.012e-05,9.338e-05,4.396e-05,6.594e-05,0.00012444,5.692e-05,9.078e-05,4.486e-05
776,5.166e-05,2.406e-05,1.9562e-05,8.98e-05,6.53e-05,3.972e-05,7.318e-05,3.354e-05,6.258e-06,2.292e-05,5.95e-05,3.326e-05,3.538e-05,1.8654e-05,2.032e-05,2.752e-05,3.618e-05,2.656e-05,7.432e-05,5.36e-05,2.308e-05,2.714e-05,1.344e-05,1.7408e-05,1.5934e-05,2.768e-05,1.7502e-05,2.094e-05,2.482e-05,2.178e-05,9.634e-05,8.278e-05,6.096e-05,9.768e-05,6.102e-05,4.582e-05,0.00012508,6.512e-05,9.264e-05,4.138e-05
778,6.704e-05,4.018e-05,3.09e-05,6.804e-05,3.702e-05,4.748e-05,8.436e-05,3.534e-05,2.782e-06,2.918e-05,4.842e-05,3.886e-05,4.4e-05,1.1422e-05,2.542e-05,2.272e-05,4.268e-05,3.476e-05,7.468e-05,5.416e-05,2.176e-05,2.66e-05,1.2194e-05,1.8996e-05,1.3508e-05,2.808e-05,1.3256e-05,2.032e-05,2.106e-05,2.534e-05,0.00011186,0.0001066,9.192e-05,0.00010212,7.724e-05,7.812e-05,0.00014438,7.03e-05,8.846e-05,6.434e-05
780,5.834e-05,1.3104e-05,2.812e-05,9.372e-05,3.786e-05,4.816e-05,7.982e-05,1.5706e-05,2.29e-05,5.172e-05,3.35e-05,3.352e-05,3.632e-05,3.07e-05,3.06e-05,2.052e-05,4.226e-05,3.296e-05,7.492e-05,6.48e-05,2.082e-05,3.052e-05,9.696e-06,2.004e-05,1.306e-05,3.482e-05,1.6786e-05,2.368e-05,2.976e-05,2.374e-05,0.00011006,0.00010656,9.144e-05,0.00010672,7.96e-05,4.618e-05,0.00010526,8.848e-05,7.9e-05,7.504e-05
