Wavelength [nm],Background (Mel),Modulation (Mel),Background (LMS),Modulation (LMS)380,8.006e-06,1.9124e-06,5.764e-06,1.7982e-07,1.045e-05,0,8.622e-06,2.024e-07,7.242e-06,1.6542e-05,4.448e-06,1.3822e-06,9.498e-06,7.692e-06,9.108e-06,1.1056e-05,1.5238e-05,1.263e-05,8.972e-06,7.932e-06,3.108e-06,2.06e-06,1.7164e-06,1.3474e-08,4.422e-06,5.522e-06,2.346e-06,4.196e-06,6.338e-06,4.064e-06,4.732e-06,1.6656e-05,1.7088e-05,1.7742e-05,1.1204e-05,2.022e-05,1.5716e-05,1.0608e-05,1.5714e-05,2.134e-05
382,8.214e-06,6.188e-06,8.102e-06,4.508e-07,9.792e-06,0,3.558e-06,2.808e-06,9.69e-06,1.2268e-05,5.992e-06,4.604e-06,8.86e-06,1.19e-05,9.118e-06,1.1864e-05,1.6426e-05,1.2786e-05,7.71e-06,1.0246e-05,1.2722e-06,4.564e-06,2.356e-06,1.87e-07,3.966e-06,5.694e-06,4.792e-06,4.61e-06,4.894e-06,3.554e-06,6.85e-06,1.2512e-05,1.0726e-05,1.5342e-05,1.6682e-05,7.144e-06,1.2502e-05,1.4288e-05,2.208e-05,1.932e-05
384,4.946e-06,3.32e-06,4.098e-06,3.024e-06,1.0922e-05,5.828e-07,5.714e-06,0,1.0334e-05,1.4478e-05,2.192e-06,8.092e-06,1.1276e-05,1.2562e-05,5.976e-06,1.2124e-05,1.6004e-05,1.4436e-05,9.242e-06,1.1354e-05,2.842e-06,4.18e-06,1.9496e-06,1.833e-07,3.654e-06,6.064e-06,3.484e-06,4.336e-06,5.144e-06,4.288e-06,2.096e-06,1.4494e-05,1.6402e-05,1.5578e-05,1.4698e-05,5.158e-06,1.0438e-05,1.2456e-05,1.6126e-05,1.421e-05
386,3.906e-06,3.506e-06,4.116e-06,3.15e-06,1.1276e-05,1.7982e-06,6.294e-06,0,8.172e-06,1.5566e-05,2.902e-06,5.802e-06,1.0276e-05,9.628e-06,8.622e-06,1.1968e-05,1.6662e-05,1.534e-05,7.398e-06,8.604e-06,3.972e-06,4.524e-06,2.8e-06,7.33e-07,4.23e-06,5.878e-06,3.266e-06,4.286e-06,6.014e-06,3.752e-06,7.838e-06,2.048e-05,1.715e-05,1.3646e-05,1.2452e-05,1.0634e-05,9.332e-06,1.0392e-05,1.6028e-05,1.6694e-05
388,5.714e-06,4.764e-06,5.724e-06,9.578e-07,1.3984e-05,1.0096e-06,8.324e-06,0,7.608e-06,1.491e-05,4.412e-06,6.382e-06,7.856e-06,1.006e-05,8.834e-06,1.1528e-05,1.53e-05,1.4182e-05,7.266e-06,4.088e-06,2.114e-06,3.382e-06,3.276e-06,6.35e-07,3.702e-06,5.478e-06,3.766e-06,5.368e-06,6.514e-06,3.192e-06,8.43e-06,1.8104e-05,1.4296e-05,1.4294e-05,1.0516e-05,1.4216e-05,1.2838e-05,1.0078e-05,1.1472e-05,1.3776e-05
390,9.412e-06,2.202e-06,1.9568e-06,3.81e-07,1.2864e-05,2.586e-07,5.722e-06,6.34e-07,8.834e-06,1.3936e-05,5.018e-06,4.618e-06,1.0876e-05,9.952e-06,9.09e-06,1.0528e-05,1.3464e-05,1.3482e-05,9.34e-06,5.088e-06,3.772e-06,3.454e-06,2.866e-06,7.96e-07,3.59e-06,4.578e-06,3.988e-06,5.346e-06,4.428e-06,3.094e-06,8.498e-06,1.3392e-05,1.674e-05,1.3534e-05,1.278e-05,1.2794e-05,1.409e-05,1.2088e-05,1.2128e-05,9.38e-06
392,8.6e-06,3.512e-06,3.074e-06,1.9264e-06,1.4648e-05,9.282e-07,1.484e-06,5.398e-06,5.39e-06,1.2696e-05,2.67e-06,7.828e-06,1.0456e-05,1.0214e-05,8.388e-06,1.2846e-05,1.5424e-05,1.333e-05,1.3934e-05,7.164e-06,3.84e-06,3.736e-06,2.78e-06,1.7426e-06,4.488e-06,4.214e-06,3.248e-06,4.09e-06,5.652e-06,2.842e-06,1.1064e-05,1.442e-05,1.1122e-05,1.2452e-05,1.0222e-05,9.528e-06,1.5332e-05,1.4596e-05,1.3186e-05,1.1324e-05
394,7.232e-06,4.754e-06,6.14e-06,6.338e-06,1.3968e-05,1.2566e-06,5.936e-06,6.924e-06,6.694e-06,1.0582e-05,5.656e-06,4.59e-06,1.2232e-05,1.1238e-05,1.2002e-05,1.444e-05,1.5996e-05,1.1756e-05,1.1716e-05,6.178e-06,3.852e-06,4.412e-06,2.766e-06,1.3178e-06,3.558e-06,4.94e-06,2.678e-06,4.342e-06,3.028e-06,3.482e-06,8.392e-06,1.5602e-05,9.964e-06,1.0622e-05,6.688e-06,1.2146e-05,1.1866e-05,1.5436e-05,1.3578e-05,1.1292e-05
396,7.47e-06,7.208e-06,8.158e-06,3.752e-06,1.1668e-05,2.266e-06,2.198e-06,3.482e-06,8.556e-06,9.916e-06,5.47e-06,7.274e-06,1.1602e-05,8.478e-06,7.572e-06,1.2092e-05,1.5e-05,1.1852e-05,1.0822e-05,6.79e-06,4.21e-06,5.218e-06,3.104e-06,2.738e-06,2.99e-06,4.418e-06,3.006e-06,4.134e-06,4.794e-06,1.9656e-06,1.1746e-05,5.066e-06,1.5524e-05,8.484e-06,1.4094e-05,9.194e-06,1.0326e-05,1.4198e-05,7.558e-06,1.1658e-05
398,6.842e-06,5.096e-06,2.128e-06,5.096e-06,1.2242e-05,9.912e-07,3.984e-06,9.406e-06,6.058e-06,7.164e-06,6.212e-06,6.3e-06,1.0944e-05,7.036e-06,9.51e-06,1.2736e-05,1.3298e-05,1.4724e-05,1.0424e-05,6.504e-06,4.44e-06,3.446e-06,3.626e-06,2.032e-06,1.605e-06,4.684e-06,3.356e-06,3.836e-06,4.126e-06,2.2e-06,8.596e-06,1.4102e-05,1.3642e-05,7.332e-06,1.3826e-05,7.38e-06,1.333e-05,1.3768e-05,1.5096e-05,1.2302e-05
400,6.19e-06,5.348e-06,2.522e-06,5.348e-06,1.3828e-05,3.958e-06,1.091e-05,1.0044e-05,5.996e-06,6.912e-06,5.78e-06,7.43e-06,1.0496e-05,1.1086e-05,9.258e-06,1.2396e-05,1.3394e-05,1.2794e-05,1.0406e-05,5.52e-06,4.698e-06,2.87e-06,2.412e-06,2.16e-06,2.49e-06,4.03e-06,2.97e-06,5.244e-06,3.596e-06,3.29e-06,1.0212e-05,1.4562e-05,1.719e-05,5.36e-06,9.404e-06,1.1134e-05,8.598e-06,1.4552e-05,1.3668e-05,1.2676e-05
402,6.996e-06,5.146e-06,4.424e-06,4.734e-06,1.0392e-05,5.656e-06,7.4e-06,7.876e-06,5.72e-06,6.28e-06,7.704e-06,7.784e-06,9.772e-06,9.85e-06,8.976e-06,1.1948e-05,1.2252e-05,1.1692e-05,1.0406e-05,6.418e-06,3.284e-06,3.286e-06,2.566e-06,2.908e-06,2.634e-06,4.174e-06,3.658e-06,5.362e-06,3.624e-06,3.174e-06,1.0216e-05,1.58e-05,1.553e-05,7.898e-06,8.444e-06,9.948e-06,1.2474e-05,1.559e-05,1.173e-05,9.948e-06
404,6.032e-06,5.474e-06,4.482e-06,4.226e-06,9.22e-06,4.738e-06,6.034e-06,4.98e-06,3.754e-06,4.902e-06,9.042e-06,8.624e-06,1.047e-05,9.368e-06,8.59e-06,1.2126e-05,1.008e-05,9.77e-06,1.223e-05,9.094e-06,2.544e-06,3.69e-06,1.8798e-06,3.64e-06,1.565e-06,4.912e-06,3.308e-06,3.366e-06,3.28e-06,2.406e-06,1.25e-05,1.473e-05,1.7396e-05,8.302e-06,7.922e-06,1.0394e-05,1.4668e-05,1.3192e-05,1.224e-05,1.083e-05
406,5.414e-06,4.834e-06,3.878e-06,5.812e-06,1.0646e-05,7.926e-06,7.682e-06,5.57e-06,9.624e-07,4.418e-06,9.268e-06,7.326e-06,9.518e-06,5.696e-06,6.916e-06,1.304e-05,1.1778e-05,1.0334e-05,1.2708e-05,7.5e-06,2.768e-06,3.364e-06,1.0714e-06,3.214e-06,1.5312e-06,4.824e-06,3.412e-06,3.662e-06,2.904e-06,2.402e-06,1.266e-05,1.6252e-05,1.6456e-05,1.1558e-05,1.0858e-05,1.2092e-05,1.7282e-05,1.4086e-05,1.2494e-05,1.224e-05
408,6.72e-06,7.858e-06,3.196e-06,4.006e-06,9.136e-06,5.566e-06,6.224e-06,9.856e-06,2.6e-06,3.484e-06,9.772e-06,8.974e-06,1.1182e-05,7.296e-06,7.132e-06,1.147e-05,8.862e-06,1.1142e-05,1.0892e-05,7e-06,3.036e-06,3.378e-06,1.8172e-06,3.412e-06,1.1778e-06,4.056e-06,3.256e-06,3.98e-06,3.076e-06,1.804e-06,1.434e-05,1.6622e-05,1.7966e-05,1.3736e-05,1.0578e-05,1.2024e-05,1.6478e-05,1.5642e-05,1.169e-05,8.74e-06
410,9.338e-06,7.628e-06,5.336e-06,5.714e-06,9.458e-06,5.766e-06,6.554e-06,1.1566e-05,3.756e-06,5.404e-06,9.222e-06,1.0636e-05,1.0576e-05,5.782e-06,8.268e-06,1.1136e-05,8.688e-06,1.0056e-05,1.2212e-05,7.686e-06,2.788e-06,3.832e-06,2.29e-06,4.25e-06,8.938e-07,4.316e-06,3.642e-06,4.186e-06,3.4e-06,2.386e-06,1.2996e-05,1.8658e-05,1.4974e-05,1.3416e-05,1.336e-05,1.4106e-05,1.7354e-05,1.2444e-05,1.6834e-05,1.0314e-05
412,8.358e-06,8.432e-06,6.482e-06,1.2784e-05,8.514e-06,5.636e-06,8.316e-06,1.1096e-05,5.236e-06,8.172e-06,7.364e-06,8.942e-06,1.0356e-05,8.588e-06,9.594e-06,1.189e-05,8.1e-06,8.44e-06,1.0802e-05,7.634e-06,3.38e-06,3.268e-06,2.708e-06,4.432e-06,6.408e-07,2.724e-06,3.356e-06,3.062e-06,2.578e-06,2.598e-06,1.8192e-05,2.08e-05,2.06e-05,1.3872e-05,1.957e-05,1.5368e-05,2.138e-05,1.5968e-05,1.7076e-05,1.4822e-05
414,1.0878e-05,1.4804e-05,1.0934e-05,1.5004e-05,1.5202e-05,1.4658e-05,1.5796e-05,1.843e-05,9.9e-06,1.0676e-05,1.0284e-05,1.125e-05,1.125e-05,8.46e-06,9.844e-06,1.3668e-05,1.0562e-05,1.1356e-05,1.263e-05,6.368e-06,3.814e-06,3.51e-06,2.318e-06,4.098e-06,1.3248e-06,2.758e-06,2.898e-06,3.356e-06,2.548e-06,3.094e-06,2.638e-05,2.656e-05,2.71e-05,2.634e-05,2.486e-05,2.19e-05,2.846e-05,2.23e-05,2.678e-05,2.136e-05
416,2.924e-05,2.974e-05,2.72e-05,3.228e-05,3.038e-05,3.064e-05,3.144e-05,3.216e-05,2.702e-05,2.674e-05,1.5602e-05,1.5994e-05,1.521e-05,1.2852e-05,1.4522e-05,1.5914e-05,1.3582e-05,1.3802e-05,1.5242e-05,1.1448e-05,3.552e-06,2.748e-06,3.044e-06,3.636e-06,9.306e-07,3.468e-06,3.484e-06,3.474e-06,2.878e-06,3.74e-06,4.812e-05,4.728e-05,5.198e-05,4.592e-05,4.76e-05,4.732e-05,5.3e-05,4.474e-05,4.914e-05,4.402e-05
418,6.572e-05,6.656e-05,6.388e-05,6.866e-05,6.7e-05,6.856e-05,6.758e-05,7.168e-05,6.438e-05,6.298e-05,2.368e-05,2.544e-05,2.306e-05,2.324e-05,2.226e-05,2.614e-05,2.25e-05,2.198e-05,2.558e-05,2.068e-05,3.852e-06,3.848e-06,3.334e-06,4.23e-06,1.2338e-06,4.276e-06,4.746e-06,4.258e-06,3.998e-06,4.292e-06,9.692e-05,9.796e-05,9.88e-05,9.668e-05,9.844e-05,9.716e-05,0.00010076,9.518e-05,9.95e-05,9.658e-05
420,0.00012468,0.00012584,0.00012464,0.0001267,0.00012508,0.0001317,0.00012878,0.00013782,0.00012832,0.00012586,3.734e-05,3.808e-05,3.842e-05,3.736e-05,3.722e-05,4.074e-05,3.862e-05,3.718e-05,4.188e-05,3.7e-05,4.892e-06,5.194e-06,4.338e-06,4.926e-06,3.082e-06,5.678e-06,5.506e-06,5.65e-06,5.36e-06,5.08e-06,0.00017882,0.00017816,0.00017956,0.00017824,0.00017696,0.00018048,0.00018652,0.00018056,0.00018216,0.00018078
422,0.0001952,0.0002,0.00019392,0.0001982,0.00019814,0.0002064,0.000209,0.0002132,0.0002054,0.0002018,5.664e-05,5.756e-05,5.558e-05,5.562e-05,5.58e-05,6.026e-05,5.756e-05,5.662e-05,6.014e-05,5.65e-05,6.058e-06,6.292e-06,5.64e-06,6.724e-06,4.05e-06,7.11e-06,7.064e-06,7.13e-06,6.7e-06,6.828e-06,0.000292,0.0002898,0.0002922,0.0002898,0.0002898,0.0003026,0.000307,0.0003018,0.0003012,0.000299
424,0.000269,0.0002692,0.0002664,0.0002708,0.0002714,0.0002862,0.0002866,0.0002942,0.000284,0.0002798,7.464e-05,7.718e-05,7.256e-05,7.25e-05,7.332e-05,7.898e-05,7.678e-05,7.67e-05,8.008e-05,7.886e-05,7.112e-06,8.236e-06,7.206e-06,8.45e-06,6.452e-06,8.648e-06,1.0206e-05,8.78e-06,8.168e-06,8.506e-06,0.0004374,0.000437,0.0004356,0.0004346,0.0004352,0.000457,0.0004608,0.000454,0.0004562,0.0004556
426,0.0003376,0.0003374,0.000335,0.00034,0.0003394,0.0003638,0.0003618,0.000367,0.0003604,0.0003558,9.362e-05,9.268e-05,9.238e-05,9.188e-05,9.17e-05,9.994e-05,9.638e-05,9.462e-05,9.74e-05,9.652e-05,1.0024e-05,1.0074e-05,9.792e-06,1.0446e-05,8.164e-06,1.0642e-05,1.1436e-05,1.0054e-05,1.0374e-05,1.081e-05,0.0006218,0.0006206,0.0006196,0.0006152,0.0006164,0.0006508,0.0006558,0.00065,0.0006534,0.0006482
428,0.000401,0.0004022,0.0003972,0.0003992,0.0003998,0.0004282,0.000431,0.0004394,0.0004282,0.0004234,0.00011084,0.00011026,0.00011018,0.00010912,0.00010852,0.0001161,0.00011454,0.0001143,0.00011652,0.00011498,1.2542e-05,1.3278e-05,1.2854e-05,1.321e-05,1.1066e-05,1.4468e-05,1.5316e-05,1.4156e-05,1.3424e-05,1.3932e-05,0.000824,0.0008254,0.0008224,0.0008224,0.000823,0.0008716,0.0008772,0.0008684,0.0008686,0.0008694
430,0.0004458,0.0004468,0.0004448,0.0004488,0.0004482,0.0004818,0.0004794,0.0004834,0.0004792,0.000473,0.00012378,0.00012478,0.00012324,0.00012178,0.00012164,0.00013186,0.00012958,0.0001292,0.00013222,0.0001307,1.5912e-05,1.5726e-05,1.5086e-05,1.5884e-05,1.4492e-05,1.7564e-05,1.7654e-05,1.7018e-05,1.6578e-05,1.704e-05,0.001001,0.0010032,0.0009996,0.0010028,0.001,0.0010642,0.0010678,0.0010654,0.0010624,0.0010652
432,0.000459,0.0004594,0.0004572,0.0004608,0.0004604,0.0004982,0.0004964,0.0004984,0.0004948,0.0004908,0.00012852,0.00012854,0.00012664,0.00012692,0.0001261,0.0001375,0.0001353,0.00013462,0.0001375,0.00013572,1.8074e-05,1.8606e-05,1.8404e-05,1.9016e-05,1.7222e-05,2.008e-05,2.05e-05,1.9478e-05,1.927e-05,2.02e-05,0.0011108,0.0011104,0.00111,0.001112,0.0011098,0.0011884,0.0011928,0.0011852,0.0011878,0.0011876
434,0.0004176,0.0004168,0.0004164,0.0004212,0.0004186,0.0004576,0.0004578,0.0004602,0.0004552,0.0004524,0.00011972,0.00012096,0.00011762,0.00011912,0.00011922,0.00012848,0.0001272,0.0001272,0.00012826,0.00013,2.05e-05,2.074e-05,2.13e-05,2.096e-05,1.9512e-05,2.322e-05,2.306e-05,2.238e-05,2.174e-05,2.358e-05,0.0011268,0.0011272,0.0011264,0.0011278,0.001127,0.0012146,0.0012166,0.0012094,0.0012122,0.0012146
436,0.0003194,0.0003198,0.0003194,0.0003224,0.0003198,0.000356,0.0003562,0.0003554,0.0003536,0.0003514,9.694e-05,9.81e-05,9.45e-05,9.594e-05,9.738e-05,0.00010458,0.0001047,0.00010342,0.0001063,0.00010706,2.264e-05,2.23e-05,2.296e-05,2.314e-05,2.236e-05,2.518e-05,2.512e-05,2.422e-05,2.454e-05,2.504e-05,0.0010572,0.0010568,0.0010574,0.0010582,0.0010556,0.00114,0.0011464,0.0011394,0.00114,0.0011436
438,0.0001999,0.00019824,0.00019726,0.0002018,0.0002008,0.0002272,0.0002246,0.0002226,0.000224,0.0002204,6.938e-05,6.892e-05,6.668e-05,6.788e-05,7.022e-05,7.57e-05,7.644e-05,7.492e-05,7.696e-05,7.668e-05,2.456e-05,2.414e-05,2.482e-05,2.528e-05,2.444e-05,2.676e-05,2.634e-05,2.628e-05,2.71e-05,2.708e-05,0.0009256,0.0009284,0.000926,0.0009306,0.0009274,0.0010014,0.0010086,0.0009996,0.0010032,0.0010032
440,0.00010162,0.00010286,9.986e-05,0.00010518,0.0001015,0.00011628,0.00011746,0.00011766,0.00011586,0.0001134,4.712e-05,4.948e-05,4.648e-05,4.884e-05,4.72e-05,4.994e-05,5.186e-05,5.188e-05,5.104e-05,5.308e-05,2.564e-05,2.614e-05,2.706e-05,2.734e-05,2.63e-05,2.83e-05,2.836e-05,2.832e-05,2.874e-05,2.908e-05,0.0007484,0.0007496,0.0007494,0.000752,0.0007496,0.0008158,0.0008182,0.000811,0.000811,0.0008152
442,5.466e-05,5.476e-05,5.412e-05,5.676e-05,5.488e-05,6.354e-05,6.342e-05,6.316e-05,6.308e-05,6.226e-05,4.012e-05,4.066e-05,3.846e-05,3.988e-05,3.928e-05,3.97e-05,4.222e-05,4.064e-05,4.122e-05,4.5e-05,2.75e-05,2.836e-05,2.858e-05,2.868e-05,2.816e-05,2.966e-05,3.026e-05,3.016e-05,3.032e-05,3.112e-05,0.0005268,0.0005264,0.000528,0.0005272,0.0005266,0.0005778,0.0005812,0.0005754,0.0005744,0.0005788
444,4.492e-05,4.376e-05,4.43e-05,4.806e-05,4.498e-05,5.338e-05,4.984e-05,4.978e-05,4.958e-05,4.892e-05,3.96e-05,4.108e-05,3.73e-05,3.866e-05,3.93e-05,4.002e-05,4.02e-05,3.922e-05,3.97e-05,4.368e-05,3.004e-05,2.978e-05,3.018e-05,3.044e-05,3.01e-05,3.236e-05,3.18e-05,3.194e-05,3.248e-05,3.31e-05,0.0003234,0.0003272,0.0003278,0.0003284,0.0003272,0.0003636,0.0003644,0.000361,0.0003622,0.0003636
446,4.542e-05,4.622e-05,4.452e-05,4.762e-05,4.492e-05,5.266e-05,5.052e-05,5.018e-05,4.99e-05,4.926e-05,4.166e-05,4.332e-05,4.006e-05,4.13e-05,4.296e-05,4.318e-05,4.37e-05,4.294e-05,4.25e-05,4.74e-05,3.226e-05,3.25e-05,3.278e-05,3.304e-05,3.28e-05,3.506e-05,3.454e-05,3.458e-05,3.452e-05,3.496e-05,0.00018162,0.00018112,0.00018002,0.00018312,0.0001791,0.0002028,0.0002022,0.0002004,0.0002036,0.0002024
448,4.914e-05,4.842e-05,4.762e-05,5.022e-05,4.796e-05,5.556e-05,5.364e-05,5.13e-05,5.38e-05,5.272e-05,4.588e-05,4.738e-05,4.324e-05,4.566e-05,4.79e-05,4.692e-05,4.768e-05,4.678e-05,4.642e-05,5.106e-05,3.542e-05,3.59e-05,3.642e-05,3.666e-05,3.606e-05,3.822e-05,3.772e-05,3.902e-05,3.832e-05,3.884e-05,0.00011056,0.0001108,0.000113,0.00011482,0.0001119,0.00012332,0.00012174,0.00012174,0.00012256,0.0001231
450,5.24e-05,5.284e-05,5.156e-05,5.456e-05,5.212e-05,5.922e-05,5.8e-05,5.318e-05,5.84e-05,5.622e-05,4.962e-05,5.164e-05,4.912e-05,5.13e-05,5.15e-05,5.092e-05,5.278e-05,5.142e-05,5.124e-05,5.634e-05,4.002e-05,3.978e-05,4.044e-05,4.042e-05,4.012e-05,4.288e-05,4.212e-05,4.33e-05,4.392e-05,4.356e-05,9.16e-05,9.292e-05,9.508e-05,9.46e-05,9.46e-05,0.00010182,0.00010078,0.0001,0.0001009,0.00010144
452,5.628e-05,5.7e-05,5.556e-05,5.576e-05,5.606e-05,6.28e-05,6.242e-05,5.966e-05,6.112e-05,6.18e-05,5.388e-05,5.584e-05,5.304e-05,5.482e-05,5.406e-05,5.374e-05,5.716e-05,5.468e-05,5.532e-05,6.114e-05,4.364e-05,4.324e-05,4.416e-05,4.388e-05,4.38e-05,4.662e-05,4.594e-05,4.662e-05,4.77e-05,4.756e-05,9.068e-05,8.898e-05,9.31e-05,9.468e-05,9.282e-05,0.0001003,9.706e-05,9.838e-05,9.974e-05,0.00010092
454,5.506e-05,5.736e-05,5.764e-05,5.67e-05,5.68e-05,6.204e-05,6.114e-05,5.888e-05,6.254e-05,6.268e-05,5.66e-05,5.794e-05,5.634e-05,5.514e-05,5.67e-05,5.736e-05,6.122e-05,5.88e-05,5.686e-05,6.254e-05,4.53e-05,4.54e-05,4.608e-05,4.648e-05,4.65e-05,4.912e-05,4.938e-05,4.988e-05,4.976e-05,5.036e-05,9.126e-05,9.076e-05,9.156e-05,9.436e-05,9.212e-05,0.00010002,9.652e-05,9.844e-05,0.00010098,9.832e-05
456,5.666e-05,5.86e-05,5.616e-05,5.782e-05,5.826e-05,6.48e-05,6.15e-05,5.762e-05,6.524e-05,6.592e-05,5.858e-05,6.026e-05,5.932e-05,5.886e-05,6.1e-05,6.092e-05,6.326e-05,6.142e-05,6.082e-05,6.532e-05,4.904e-05,4.83e-05,4.904e-05,4.934e-05,4.854e-05,5.138e-05,5.172e-05,5.272e-05,5.242e-05,5.344e-05,9.136e-05,9.152e-05,9.344e-05,9.442e-05,9.206e-05,0.00010098,9.926e-05,0.00010046,0.00010062,0.00010068
458,6.05e-05,6.362e-05,6.09e-05,6.032e-05,6.314e-05,6.778e-05,6.44e-05,6.346e-05,6.592e-05,6.81e-05,6.312e-05,6.546e-05,6.402e-05,6.366e-05,6.498e-05,6.756e-05,6.996e-05,6.52e-05,6.312e-05,7.134e-05,5.292e-05,5.226e-05,5.322e-05,5.23e-05,5.296e-05,5.592e-05,5.604e-05,5.608e-05,5.724e-05,5.744e-05,9.604e-05,9.364e-05,9.624e-05,9.684e-05,9.406e-05,0.00010392,0.00010008,0.0001048,0.00010612,0.0001069
460,6.522e-05,6.726e-05,6.624e-05,6.402e-05,6.734e-05,7.106e-05,6.858e-05,6.464e-05,6.996e-05,7.246e-05,6.932e-05,7.058e-05,6.996e-05,6.794e-05,7.112e-05,7.21e-05,7.594e-05,7.198e-05,6.934e-05,7.634e-05,5.706e-05,5.676e-05,5.724e-05,5.676e-05,5.774e-05,6.152e-05,6.06e-05,6.068e-05,6.24e-05,6.198e-05,9.916e-05,9.692e-05,0.00010034,0.00010082,9.888e-05,0.00010844,0.00010566,0.00010632,0.00010702,0.00010886
462,6.972e-05,6.948e-05,6.878e-05,6.722e-05,7.054e-05,7.462e-05,7.31e-05,6.858e-05,7.396e-05,7.542e-05,7.404e-05,7.53e-05,7.468e-05,7.404e-05,7.56e-05,7.752e-05,8.082e-05,7.67e-05,7.644e-05,8.166e-05,6.106e-05,6.108e-05,6.136e-05,6.124e-05,6.17e-05,6.684e-05,6.594e-05,6.586e-05,6.732e-05,6.7e-05,0.00010174,9.992e-05,0.00010314,0.00010362,0.00010124,0.00010914,0.00010776,0.00011078,0.00011146,0.00011306
464,7.206e-05,7.44e-05,7.202e-05,7.096e-05,7.424e-05,7.902e-05,7.742e-05,7.566e-05,7.892e-05,8.014e-05,7.914e-05,8.014e-05,7.958e-05,7.856e-05,8.154e-05,8.436e-05,8.622e-05,8.234e-05,8.292e-05,8.87e-05,6.618e-05,6.602e-05,6.628e-05,6.628e-05,6.68e-05,7.17e-05,7.108e-05,7.174e-05,7.226e-05,7.164e-05,0.00010422,0.00010574,0.00010588,0.0001081,0.00010556,0.00011226,0.000112,0.00011608,0.00011598,0.00011694
466,7.682e-05,8.038e-05,7.74e-05,7.532e-05,7.974e-05,8.44e-05,8.074e-05,7.776e-05,8.312e-05,8.582e-05,8.576e-05,8.584e-05,8.676e-05,8.76e-05,8.824e-05,9.072e-05,9.324e-05,8.994e-05,9.054e-05,9.672e-05,7.18e-05,7.166e-05,7.196e-05,7.206e-05,7.174e-05,7.724e-05,7.718e-05,7.77e-05,7.768e-05,7.77e-05,0.0001112,0.00010818,0.00011434,0.00011226,0.00011026,0.00012108,0.0001169,0.00012286,0.00012056,0.00012106
468,8.082e-05,8.186e-05,8.252e-05,8.07e-05,8.388e-05,9.014e-05,8.638e-05,8.608e-05,8.972e-05,8.984e-05,9.432e-05,9.58e-05,9.708e-05,9.574e-05,9.576e-05,0.00010058,0.00010398,9.884e-05,0.00010002,0.0001054,7.79e-05,7.86e-05,7.87e-05,7.854e-05,7.894e-05,8.488e-05,8.46e-05,8.518e-05,8.502e-05,8.478e-05,0.00011736,0.00011724,0.00011942,0.00011784,0.0001153,0.00012728,0.0001233,0.00013144,0.0001274,0.00012822
470,8.344e-05,8.762e-05,8.506e-05,8.222e-05,8.49e-05,9.184e-05,8.89e-05,8.448e-05,9.046e-05,9.392e-05,9.802e-05,9.884e-05,9.996e-05,9.95e-05,0.00010168,0.00010658,0.00010894,0.00010484,0.0001056,0.00010956,8.188e-05,8.146e-05,8.298e-05,8.232e-05,8.252e-05,8.918e-05,8.912e-05,8.92e-05,8.942e-05,8.904e-05,0.0001204,0.00011966,0.00011942,0.00011792,0.00011684,0.00012806,0.00012246,0.00013304,0.00012972,0.00013102
472,8.368e-05,8.708e-05,8.576e-05,8.162e-05,8.606e-05,9.402e-05,8.968e-05,8.474e-05,9.01e-05,9.468e-05,0.00010002,0.00010058,0.00010312,0.0001013,0.0001033,0.00010892,0.000111,0.00010864,0.00010944,0.00011042,8.37e-05,8.398e-05,8.408e-05,8.416e-05,8.484e-05,9.098e-05,9.084e-05,9.174e-05,9.188e-05,9.09e-05,0.00012,0.00011464,0.00012112,0.00011786,0.00011682,0.00013008,0.00012264,0.00013352,0.00012948,0.0001314
474,8.21e-05,8.486e-05,8.56e-05,8.282e-05,8.49e-05,9.068e-05,8.98e-05,8.69e-05,8.828e-05,9.428e-05,0.00010152,0.00010244,0.00010502,0.00010264,0.00010548,0.00011214,0.00011226,0.00010996,0.00011188,0.0001123,8.53e-05,8.566e-05,8.534e-05,8.532e-05,8.558e-05,9.28e-05,9.258e-05,9.336e-05,9.352e-05,9.186e-05,0.0001162,0.00011272,0.00011874,0.0001158,0.0001152,0.00012858,0.00012204,0.00013208,0.0001275,0.0001273
476,7.908e-05,8.302e-05,8.228e-05,8.068e-05,8.198e-05,8.556e-05,8.848e-05,8.49e-05,8.39e-05,9.04e-05,0.00010092,0.00010166,0.00010278,0.00010242,0.00010444,0.0001119,0.00011154,0.00011048,0.00011108,0.00011114,8.494e-05,8.468e-05,8.472e-05,8.522e-05,8.49e-05,9.246e-05,9.204e-05,9.228e-05,9.254e-05,9.082e-05,0.00011192,0.0001105,0.00011236,0.00011154,0.00011096,0.00012094,0.00011662,0.00012706,0.00012206,0.00012578
478,7.934e-05,8.056e-05,8.144e-05,7.81e-05,8.158e-05,8.616e-05,8.592e-05,8.506e-05,8.348e-05,8.9e-05,0.00010196,0.00010096,0.0001055,0.00010364,0.00010616,0.00011256,0.00011334,0.00011246,0.00011236,0.0001124,8.59e-05,8.514e-05,8.538e-05,8.636e-05,8.6e-05,9.328e-05,9.31e-05,9.42e-05,9.324e-05,9.182e-05,0.0001098,0.00010826,0.00011124,0.00011,0.00010624,0.00011908,0.00011416,0.0001222,0.0001199,0.00012492
480,8.19e-05,8.392e-05,8.44e-05,8.24e-05,8.414e-05,8.712e-05,8.878e-05,8.732e-05,8.634e-05,9.058e-05,0.0001075,0.00010904,0.00011156,0.00010982,0.00011018,0.00012014,0.00012088,0.00011802,0.00011956,0.00011798,9.09e-05,9.106e-05,9.168e-05,9.038e-05,9.058e-05,9.964e-05,9.906e-05,9.964e-05,9.914e-05,9.708e-05,0.00011018,0.00011062,0.00011444,0.00011088,0.00010838,0.00012192,0.00011612,0.00012408,0.00012162,0.00012
482,8.678e-05,8.78e-05,8.91e-05,8.722e-05,8.866e-05,9.202e-05,9.414e-05,8.86e-05,9.088e-05,9.5e-05,0.00011752,0.00011828,0.00012258,0.00011934,0.00012104,0.0001302,0.00013058,0.00013002,0.00013064,0.000129,9.896e-05,9.854e-05,9.936e-05,9.886e-05,9.856e-05,0.00010766,0.0001077,0.00010714,0.00010776,0.00010564,0.00011608,0.00011526,0.0001185,0.00011534,0.0001148,0.0001264,0.00012048,0.00013204,0.00012714,0.0001276
484,8.812e-05,8.8e-05,9.06e-05,8.894e-05,9.09e-05,9.508e-05,9.508e-05,9.148e-05,9.26e-05,9.848e-05,0.00012468,0.00012262,0.00012936,0.00012702,0.00012622,0.0001374,0.0001366,0.0001362,0.00013678,0.0001335,0.00010432,0.00010432,0.00010472,0.00010386,0.0001037,0.00011356,0.00011378,0.00011332,0.00011312,0.00011202,0.00011706,0.0001168,0.00011964,0.00011394,0.00011238,0.00012654,0.00012382,0.0001327,0.00013036,0.00012858
486,8.76e-05,8.78e-05,9.024e-05,8.908e-05,9.066e-05,9.526e-05,9.396e-05,9.45e-05,9.162e-05,9.73e-05,0.00013204,0.00013132,0.00013588,0.0001347,0.00013404,0.0001457,0.00014286,0.0001434,0.0001454,0.00014136,0.0001104,0.0001102,0.0001105,0.00010984,0.0001094,0.00011932,0.00011954,0.00011932,0.00011846,0.00011722,0.0001135,0.00011572,0.00011864,0.0001119,0.0001125,0.00012312,0.0001236,0.00013118,0.00012754,0.0001283
488,8.906e-05,8.962e-05,9.104e-05,9.09e-05,9.146e-05,9.56e-05,9.552e-05,9.586e-05,9.23e-05,9.798e-05,0.00015588,0.00015652,0.0001598,0.000158,0.00015758,0.0001707,0.0001663,0.00016812,0.00016976,0.00016608,0.00013124,0.00013142,0.00013192,0.00013116,0.00013068,0.0001401,0.00013978,0.00013994,0.00013892,0.0001386,0.00011798,0.00011916,0.00012096,0.00011688,0.00011592,0.00012734,0.00012664,0.000133,0.00012958,0.0001323
490,9.324e-05,9.146e-05,9.436e-05,9.26e-05,9.668e-05,9.792e-05,0.00010088,9.784e-05,9.748e-05,0.00010248,0.0002328,0.0002316,0.000235,0.0002336,0.000233,0.0002458,0.0002408,0.0002448,0.0002444,0.0002406,0.00019968,0.0002,0.00019994,0.00019908,0.00019822,0.0002074,0.000207,0.0002074,0.0002058,0.000206,0.0001297,0.0001305,0.00013092,0.00012786,0.00012906,0.00013732,0.00013928,0.00014576,0.00014268,0.00014394
492,0.00010098,9.7e-05,0.00010064,0.00010008,0.00010092,0.00010534,0.00010704,0.00010724,0.000105,0.00010762,0.0003986,0.0003984,0.0003994,0.0003992,0.0003984,0.000414,0.00041,0.0004136,0.000413,0.0004094,0.0003468,0.0003466,0.0003468,0.0003466,0.0003454,0.0003566,0.0003558,0.0003566,0.0003548,0.000354,0.00015024,0.0001501,0.00015068,0.00014972,0.00014966,0.00016026,0.0001601,0.00016564,0.0001637,0.00016668
494,0.00010392,0.00010114,0.00010514,0.0001044,0.00010422,0.00010938,0.00011092,0.00011288,0.00010912,0.00011308,0.0007052,0.000704,0.0007046,0.0007022,0.000702,0.0007268,0.0007244,0.0007286,0.0007252,0.000723,0.0005822,0.000582,0.0005808,0.0005814,0.0005796,0.0006006,0.0006004,0.0005996,0.0005982,0.0005986,0.00017638,0.00017946,0.00018166,0.00017616,0.00017594,0.00018858,0.0001913,0.0001963,0.0001934,0.00019734
496,0.00010658,0.00010446,0.00010722,0.000108,0.00010898,0.00011318,0.00011448,0.00011564,0.00011362,0.00011756,0.0011276,0.0011276,0.0011292,0.0011284,0.0011236,0.0011666,0.0011632,0.0011686,0.0011658,0.0011662,0.0008164,0.0008154,0.0008148,0.0008156,0.0008136,0.0008482,0.0008498,0.0008484,0.0008468,0.0008476,0.0002098,0.000211,0.0002086,0.0002078,0.0002092,0.0002218,0.0002216,0.0002286,0.0002256,0.0002252
498,0.00011358,0.00011018,0.000116,0.00011256,0.00011482,0.00012072,0.00012086,0.00012674,0.00012142,0.00012516,0.0017026,0.0017022,0.0017044,0.0017014,0.0016966,0.0017662,0.0017618,0.0017712,0.0017666,0.0017732,0.0010228,0.0010208,0.0010202,0.0010212,0.0010194,0.0010704,0.0010728,0.0010704,0.001068,0.0010688,0.000242,0.0002432,0.0002444,0.0002408,0.000244,0.0002576,0.0002596,0.0002612,0.0002602,0.0002598
500,0.00012462,0.00012064,0.00012524,0.00012394,0.0001247,0.00013308,0.00013184,0.0001384,0.0001321,0.00013582,0.00239,0.002388,0.00239,0.002388,0.002384,0.002492,0.002488,0.002498,0.00249,0.00251,0.0011974,0.0011962,0.0011952,0.0011964,0.0011944,0.0012614,0.0012638,0.0012608,0.001259,0.0012596,0.0002758,0.0002776,0.0002794,0.0002756,0.0002794,0.0002946,0.000298,0.0002984,0.000298,0.000298
502,0.00013714,0.00013348,0.00013742,0.00013696,0.0001375,0.00014622,0.0001472,0.0001524,0.0001447,0.00014988,0.003058,0.003056,0.003058,0.003056,0.003052,0.00321,0.003206,0.003216,0.003208,0.00324,0.0013344,0.0013332,0.0013324,0.0013336,0.0013318,0.001412,0.0014154,0.0014112,0.0014104,0.0014112,0.0003068,0.0003086,0.0003092,0.000305,0.000309,0.0003286,0.0003292,0.0003346,0.00033,0.0003312
504,0.00014764,0.00014364,0.00014824,0.00014654,0.0001485,0.0001563,0.0001579,0.0001652,0.00015556,0.00016086,0.003572,0.003572,0.003574,0.00357,0.003566,0.003778,0.003774,0.003784,0.003774,0.003812,0.0014218,0.0014206,0.0014196,0.0014212,0.0014188,0.0015116,0.0015138,0.0015104,0.0015096,0.0015102,0.0003272,0.0003298,0.0003272,0.0003258,0.0003274,0.0003504,0.0003524,0.000353,0.000353,0.000353
506,0.00015472,0.0001511,0.00015276,0.00015268,0.00015328,0.0001629,0.00016462,0.00017016,0.00016252,0.000168,0.003848,0.003846,0.00385,0.003848,0.003846,0.004102,0.004096,0.004106,0.004098,0.004126,0.0014268,0.0014258,0.0014248,0.0014274,0.0014256,0.0015284,0.001529,0.0015284,0.0015266,0.0015278,0.0003282,0.0003312,0.000331,0.0003316,0.0003292,0.0003586,0.0003564,0.0003564,0.0003544,0.0003582
508,0.00015758,0.00015446,0.00015584,0.00015584,0.0001563,0.00016742,0.00016732,0.00017038,0.00016752,0.00017036,0.003842,0.003842,0.003846,0.003844,0.003842,0.004126,0.00412,0.004122,0.00412,0.004128,0.001296,0.0012952,0.0012952,0.001297,0.0012956,0.0014038,0.0014028,0.0014032,0.0014022,0.0014034,0.0003128,0.000315,0.000311,0.0003138,0.0003146,0.0003394,0.00034,0.0003392,0.0003388,0.0003414
510,0.00015938,0.0001544,0.00015726,0.00015736,0.00015762,0.00016992,0.00016878,0.00017434,0.00016974,0.00017224,0.00362,0.003622,0.003624,0.003624,0.003622,0.003908,0.003906,0.003904,0.003906,0.00389,0.0010506,0.0010504,0.0010502,0.0010522,0.0010508,0.0011538,0.0011502,0.0011526,0.0011518,0.0011534,0.000284,0.0002862,0.000284,0.0002864,0.0002878,0.0003136,0.0003118,0.0003102,0.0003078,0.0003106
512,0.00015742,0.00015428,0.00015552,0.00015604,0.00015656,0.00016896,0.00016914,0.00017408,0.00016896,0.00017108,0.00319,0.003192,0.003196,0.003196,0.003194,0.003472,0.00347,0.003466,0.00347,0.003438,0.0007648,0.0007652,0.0007648,0.0007664,0.0007652,0.0008498,0.0008458,0.0008486,0.0008482,0.00085,0.0002564,0.000258,0.000256,0.0002576,0.0002578,0.0002822,0.0002816,0.000278,0.0002762,0.0002796
514,0.00014976,0.00014694,0.00014942,0.00015,0.00015058,0.00016252,0.00016376,0.00016628,0.00016204,0.00016522,0.002512,0.002514,0.002518,0.002518,0.002518,0.00277,0.00277,0.002762,0.00277,0.00273,0.000523,0.0005224,0.0005224,0.0005236,0.0005228,0.0005838,0.0005806,0.0005832,0.0005826,0.0005846,0.000228,0.0002274,0.0002268,0.0002266,0.0002284,0.0002484,0.0002504,0.0002464,0.000246,0.0002504
516,0.00013974,0.0001372,0.00013788,0.00013916,0.00013866,0.0001518,0.0001518,0.00015698,0.0001527,0.00015436,0.0016504,0.001654,0.0016566,0.001656,0.0016582,0.001853,0.0018532,0.0018476,0.001852,0.0018208,0.0003472,0.0003462,0.0003464,0.0003474,0.0003462,0.0003888,0.0003866,0.0003882,0.000388,0.0003898,0.00019868,0.00019888,0.00019584,0.00019862,0.00019888,0.0002156,0.0002188,0.0002152,0.0002154,0.0002188
518,0.00013016,0.0001287,0.0001297,0.00012798,0.00013036,0.0001421,0.00014118,0.00014502,0.00014258,0.00014322,0.0008234,0.0008274,0.0008288,0.0008268,0.0008284,0.0009432,0.0009428,0.0009406,0.0009434,0.000928,0.0002234,0.0002226,0.000223,0.0002236,0.0002222,0.0002492,0.0002488,0.0002492,0.0002494,0.0002508,0.00017652,0.00017734,0.00017658,0.00017808,0.00017468,0.00019554,0.00019422,0.00018912,0.0001908,0.00019264
520,0.00012588,0.00012678,0.0001266,0.00012554,0.00012666,0.00013798,0.0001383,0.00013816,0.00013976,0.00013862,0.0003882,0.0003896,0.0003886,0.000389,0.0003894,0.0004414,0.0004412,0.000442,0.0004422,0.0004388,0.00016648,0.00016586,0.00016562,0.00016656,0.0001658,0.0001829,0.00018232,0.00018288,0.00018316,0.00018412,0.0001677,0.0001679,0.00016494,0.0001693,0.0001709,0.00018196,0.00018516,0.00017986,0.00017882,0.00018644
522,0.00012706,0.00012698,0.00012724,0.00012772,0.00012678,0.00013972,0.00014114,0.00014104,0.00013998,0.00014054,0.0002534,0.0002554,0.0002532,0.0002528,0.0002538,0.000279,0.000279,0.0002802,0.0002804,0.0002796,0.00014966,0.00014872,0.00014862,0.00014894,0.00014788,0.00016142,0.00016188,0.00016174,0.00016208,0.00016306,0.00016798,0.00016946,0.0001668,0.0001679,0.0001703,0.00018266,0.00018582,0.00018084,0.0001791,0.00018374
524,0.00013124,0.00012948,0.00013086,0.00012998,0.0001294,0.00014068,0.00014302,0.0001429,0.00014088,0.00014436,0.0002224,0.0002238,0.0002228,0.0002222,0.0002224,0.0002406,0.0002406,0.0002418,0.0002422,0.0002422,0.00014526,0.0001444,0.00014432,0.00014484,0.00014346,0.00015598,0.00015618,0.00015658,0.00015642,0.0001574,0.00016972,0.00017248,0.00016902,0.0001722,0.00017352,0.00018606,0.00018884,0.00018372,0.00018034,0.00018654
526,0.00013348,0.00013288,0.00013386,0.0001343,0.0001334,0.00014446,0.00014606,0.00014522,0.00014404,0.00014606,0.0002166,0.0002188,0.000217,0.0002172,0.0002164,0.0002326,0.0002326,0.0002344,0.0002348,0.0002352,0.00014432,0.00014346,0.00014294,0.00014368,0.00014282,0.00015428,0.00015446,0.00015502,0.00015462,0.0001558,0.00017402,0.00017628,0.00017304,0.0001753,0.00017754,0.00018972,0.00019334,0.00018684,0.0001848,0.00019174
528,0.00013538,0.00013638,0.0001354,0.00013538,0.00013416,0.0001472,0.0001501,0.00014976,0.00014714,0.00014866,0.000214,0.0002168,0.0002134,0.0002144,0.0002146,0.00023,0.0002322,0.0002302,0.000231,0.0002336,0.00014296,0.00014256,0.00014166,0.00014242,0.00014176,0.000153,0.00015324,0.00015366,0.0001532,0.00015484,0.00017808,0.00018016,0.00017728,0.00018084,0.00017856,0.00019492,0.00019844,0.00019266,0.00019102,0.00019646
530,0.00013926,0.00013916,0.00013842,0.0001375,0.00013822,0.00015176,0.00015366,0.00015068,0.00015068,0.00015214,0.0002088,0.0002124,0.0002108,0.0002104,0.0002106,0.0002254,0.0002262,0.0002262,0.0002286,0.0002282,0.00014248,0.00014134,0.00014134,0.00014144,0.00014104,0.0001522,0.00015312,0.00015352,0.00015312,0.00015372,0.0001811,0.00018246,0.00018222,0.00018404,0.00018254,0.00019866,0.00019974,0.00019724,0.00019584,0.0001995
532,0.0001433,0.00014102,0.00014096,0.00014156,0.0001416,0.00015382,0.00015666,0.00015294,0.00015544,0.00015412,0.0002054,0.0002078,0.0002058,0.0002064,0.0002068,0.00022,0.0002214,0.0002226,0.0002226,0.0002246,0.00014286,0.00014192,0.0001413,0.00014158,0.00014184,0.0001519,0.00015284,0.00015322,0.00015312,0.00015376,0.0001863,0.00018798,0.00018476,0.00018756,0.00018798,0.0002018,0.0002048,0.000203,0.0002008,0.0002042
534,0.00014506,0.0001451,0.00014346,0.00014518,0.00014414,0.0001582,0.00016084,0.00015772,0.00015816,0.00015848,0.000202,0.0002038,0.0002026,0.0002018,0.000204,0.0002168,0.0002186,0.0002176,0.000219,0.0002212,0.00014312,0.00014178,0.00014146,0.00014116,0.00014198,0.00015294,0.0001532,0.00015388,0.00015332,0.00015434,0.00019214,0.00019182,0.00018882,0.00019376,0.0001927,0.0002092,0.0002098,0.0002068,0.0002074,0.0002104
536,0.00014906,0.0001496,0.00014818,0.00014878,0.0001473,0.0001615,0.0001644,0.0001602,0.00016256,0.00016278,0.0002006,0.000202,0.0002006,0.0002004,0.000202,0.0002156,0.0002166,0.0002154,0.000217,0.0002194,0.0001439,0.00014278,0.00014232,0.00014266,0.00014262,0.00015342,0.0001544,0.00015492,0.00015488,0.00015498,0.00019662,0.00019842,0.00019574,0.00019952,0.00019844,0.0002154,0.000217,0.0002136,0.0002146,0.0002156
538,0.00015286,0.00015304,0.00015274,0.0001533,0.0001513,0.00016574,0.00016904,0.00016334,0.00016718,0.00016686,0.0002018,0.0002024,0.0002006,0.0002004,0.0002022,0.0002164,0.0002182,0.0002158,0.0002176,0.0002196,0.00014564,0.0001444,0.00014382,0.00014422,0.00014384,0.0001552,0.00015586,0.00015652,0.00015642,0.00015602,0.000203,0.0002034,0.0002024,0.000206,0.0002042,0.0002208,0.0002216,0.0002212,0.0002196,0.0002228
540,0.000156,0.00015738,0.00015702,0.00015746,0.00015578,0.0001714,0.00017478,0.00016794,0.0001713,0.00017274,0.0002034,0.0002032,0.0002024,0.000202,0.0002032,0.0002166,0.0002186,0.0002174,0.0002202,0.0002204,0.00014646,0.00014588,0.00014552,0.00014592,0.00014564,0.00015702,0.00015778,0.00015834,0.00015836,0.00015776,0.0002096,0.0002104,0.0002102,0.0002146,0.000212,0.0002298,0.0002292,0.000231,0.000229,0.0002306
542,0.00016186,0.00016314,0.00016438,0.00016202,0.00016362,0.0001754,0.00017938,0.00017284,0.00017708,0.00017596,0.0002044,0.0002046,0.0002044,0.000205,0.0002054,0.0002192,0.0002202,0.0002178,0.0002216,0.0002232,0.00014862,0.00014802,0.00014776,0.00014764,0.00014766,0.00015908,0.00015974,0.00016028,0.00015998,0.00016016,0.0002212,0.0002194,0.0002198,0.000225,0.0002224,0.0002418,0.0002406,0.0002396,0.0002404,0.0002402
544,0.00016766,0.00016974,0.00016802,0.0001674,0.0001678,0.00018084,0.00018518,0.0001808,0.0001837,0.00018352,0.0002056,0.000206,0.0002066,0.000205,0.0002064,0.0002206,0.0002222,0.000221,0.000223,0.0002252,0.0001506,0.00015016,0.0001496,0.00014962,0.00014946,0.00016202,0.00016194,0.0001629,0.00016252,0.00016268,0.0002308,0.0002328,0.0002312,0.0002346,0.0002326,0.0002538,0.000253,0.0002532,0.0002522,0.0002532
546,0.00017236,0.00017452,0.00017234,0.00017196,0.00017272,0.00018732,0.0001913,0.0001844,0.00018988,0.00018816,0.0002056,0.0002046,0.0002064,0.0002058,0.000207,0.0002218,0.0002238,0.0002216,0.000223,0.0002254,0.00015184,0.0001516,0.00015104,0.00015122,0.000151,0.00016358,0.00016372,0.00016458,0.00016406,0.00016384,0.0002446,0.0002438,0.0002438,0.0002456,0.0002444,0.0002654,0.0002638,0.0002654,0.0002666,0.0002662
548,0.00017822,0.00017952,0.0001783,0.00017734,0.00017892,0.00019326,0.00019536,0.00019134,0.0001946,0.00019334,0.0002062,0.0002052,0.0002062,0.0002058,0.0002072,0.0002218,0.0002236,0.0002216,0.0002238,0.0002256,0.00015346,0.00015286,0.0001524,0.00015238,0.00015278,0.00016494,0.00016558,0.00016574,0.0001656,0.00016514,0.0002584,0.000257,0.0002572,0.0002592,0.0002582,0.00028,0.0002808,0.0002798,0.0002822,0.0002796
550,0.00018424,0.0001845,0.00018274,0.00018422,0.00018304,0.00019946,0.0001999,0.00019586,0.0002006,0.0002006,0.0002078,0.000206,0.0002076,0.0002062,0.0002076,0.0002228,0.0002244,0.0002214,0.0002244,0.0002264,0.00015478,0.00015386,0.00015384,0.00015406,0.00015404,0.00016678,0.00016738,0.00016742,0.00016682,0.00016678,0.0002738,0.0002734,0.0002718,0.0002754,0.0002734,0.0002972,0.000297,0.0002982,0.0002992,0.0002972
552,0.0001902,0.00019126,0.00018828,0.00018988,0.00018984,0.0002054,0.0002066,0.000201,0.000206,0.000206,0.0002074,0.0002046,0.0002068,0.000206,0.0002078,0.0002238,0.0002248,0.0002222,0.0002262,0.0002248,0.00015606,0.00015562,0.00015546,0.00015536,0.00015562,0.00016836,0.0001686,0.00016926,0.00016824,0.0001684,0.0002956,0.0002924,0.000292,0.000296,0.000294,0.000318,0.0003172,0.0003218,0.000321,0.0003194
554,0.0001964,0.00019744,0.00019626,0.0001959,0.00019598,0.000212,0.0002132,0.0002102,0.0002132,0.0002126,0.0002068,0.0002058,0.0002058,0.0002058,0.0002078,0.0002232,0.0002242,0.0002208,0.000224,0.000224,0.00015742,0.00015664,0.00015672,0.00015732,0.00015708,0.0001697,0.00017004,0.00016984,0.00016974,0.0001688,0.0003204,0.0003178,0.000318,0.0003218,0.0003186,0.0003446,0.0003456,0.0003464,0.00035,0.0003448
556,0.0002034,0.0002044,0.0002022,0.0002028,0.0002026,0.000219,0.0002208,0.0002198,0.0002214,0.0002208,0.0002074,0.000205,0.0002066,0.0002048,0.0002068,0.000223,0.0002226,0.0002208,0.0002244,0.0002246,0.00015718,0.0001578,0.0001573,0.0001576,0.00015772,0.00017082,0.00017114,0.00017088,0.0001707,0.00017002,0.0003576,0.0003578,0.000355,0.000359,0.0003572,0.0003842,0.0003842,0.0003856,0.0003884,0.0003844
558,0.0002118,0.0002118,0.0002098,0.000211,0.0002118,0.000227,0.000228,0.0002242,0.000229,0.000228,0.0002062,0.0002046,0.0002066,0.0002048,0.0002062,0.000224,0.000223,0.0002222,0.000224,0.0002244,0.0001579,0.00015864,0.00015834,0.00015826,0.0001583,0.00017146,0.00017128,0.00017178,0.00017162,0.00017036,0.0004484,0.0004462,0.0004442,0.0004472,0.0004462,0.0004732,0.0004732,0.000475,0.0004762,0.0004734
560,0.000221,0.000221,0.000219,0.0002206,0.0002208,0.0002364,0.0002376,0.0002336,0.0002384,0.000238,0.0002064,0.0002046,0.0002062,0.0002058,0.0002062,0.0002242,0.0002234,0.0002226,0.0002248,0.000225,0.00015848,0.00015936,0.00015928,0.00015972,0.00015892,0.0001723,0.00017228,0.00017222,0.00017222,0.00017098,0.000695,0.0006928,0.0006898,0.0006926,0.0006914,0.000717,0.0007162,0.0007174,0.0007196,0.0007156
562,0.0002316,0.0002328,0.0002312,0.0002302,0.0002304,0.0002486,0.0002484,0.000245,0.0002486,0.0002486,0.0002062,0.000205,0.0002074,0.0002068,0.0002074,0.0002236,0.000224,0.0002226,0.000225,0.0002252,0.00015912,0.00015986,0.00015978,0.0001606,0.00016028,0.00017282,0.00017282,0.00017264,0.00017288,0.00017152,0.0012446,0.00124,0.001238,0.0012386,0.0012382,0.0012716,0.00127,0.0012712,0.001274,0.0012704
564,0.0002484,0.0002484,0.000246,0.000247,0.0002474,0.0002662,0.0002638,0.0002632,0.0002656,0.0002652,0.0002078,0.0002058,0.0002072,0.0002062,0.0002078,0.000225,0.0002258,0.0002232,0.000226,0.0002262,0.00015984,0.00016098,0.0001603,0.0001606,0.00016066,0.00017382,0.00017362,0.00017342,0.00017412,0.00017274,0.002264,0.002256,0.002254,0.002254,0.002252,0.002326,0.002326,0.002332,0.002328,0.002328
566,0.0002732,0.000274,0.000272,0.0002706,0.0002726,0.0002922,0.0002918,0.0002896,0.0002926,0.0002918,0.0002096,0.000206,0.0002092,0.0002092,0.0002092,0.0002274,0.0002264,0.000225,0.0002292,0.0002268,0.00016156,0.00016218,0.0001623,0.00016278,0.00016258,0.00017556,0.00017494,0.00017454,0.00017512,0.00017466,0.003474,0.003464,0.003462,0.003462,0.00346,0.003598,0.003598,0.003602,0.0036,0.0036
568,0.000323,0.000323,0.0003204,0.0003192,0.000321,0.0003394,0.0003404,0.0003398,0.0003404,0.0003418,0.0002122,0.0002114,0.0002128,0.0002114,0.000212,0.00023,0.0002292,0.0002278,0.0002308,0.0002304,0.00016344,0.00016452,0.00016432,0.0001651,0.00016396,0.00017776,0.00017776,0.0001766,0.00017742,0.0001768,0.004764,0.004752,0.004752,0.004748,0.004746,0.004964,0.004966,0.004966,0.004966,0.004966
570,0.0004436,0.0004432,0.0004406,0.0004394,0.0004408,0.0004594,0.0004576,0.0004596,0.0004608,0.0004598,0.0002156,0.000215,0.0002166,0.0002152,0.0002158,0.0002334,0.0002334,0.0002326,0.0002346,0.0002336,0.00016566,0.00016642,0.0001663,0.00016682,0.00016626,0.00017994,0.0001794,0.00017874,0.00017958,0.0001784,0.006078,0.006068,0.006066,0.006064,0.00606,0.006366,0.006366,0.006368,0.006366,0.006368
572,0.000752,0.0007516,0.0007492,0.0007464,0.0007486,0.000766,0.000765,0.000771,0.00077,0.0007672,0.0002226,0.0002224,0.0002234,0.0002218,0.000222,0.00024,0.0002414,0.0002406,0.000242,0.000241,0.00016848,0.00016956,0.0001689,0.0001698,0.00016896,0.00018316,0.00018194,0.00018182,0.00018252,0.00018144,0.007372,0.007358,0.007356,0.007356,0.00735,0.007748,0.00775,0.007752,0.00775,0.007752
574,0.0014258,0.0014278,0.0014222,0.0014156,0.0014198,0.0014516,0.0014532,0.0014678,0.001457,0.0014562,0.0002336,0.0002342,0.0002352,0.0002328,0.0002332,0.0002522,0.0002518,0.0002526,0.0002534,0.000253,0.00017198,0.00017272,0.00017242,0.0001741,0.00017284,0.00018604,0.00018618,0.00018546,0.00018634,0.00018488,0.008636,0.008626,0.008622,0.008624,0.008614,0.009116,0.009118,0.009118,0.009116,0.00912
576,0.002468,0.002474,0.002462,0.002456,0.002464,0.002538,0.002544,0.002588,0.002554,0.00255,0.000252,0.0002512,0.0002534,0.0002514,0.0002498,0.0002732,0.0002716,0.000272,0.000272,0.000273,0.0001787,0.0001793,0.00017912,0.0001802,0.00017866,0.00019262,0.00019276,0.00019126,0.00019278,0.00019118,0.009734,0.00972,0.009718,0.009718,0.009708,0.010316,0.010318,0.010316,0.010316,0.010322
578,0.00359,0.003596,0.003584,0.003576,0.003586,0.003722,0.003734,0.00383,0.003742,0.003738,0.0002774,0.000277,0.0002788,0.0002772,0.0002752,0.0002998,0.0002984,0.0002992,0.0003006,0.0002992,0.00018856,0.00018916,0.00018892,0.0001898,0.000188,0.0002028,0.0002028,0.0002012,0.0002028,0.0002012,0.010448,0.010438,0.010434,0.010438,0.010426,0.011114,0.011116,0.011114,0.011114,0.01112
580,0.00475,0.004756,0.004746,0.004734,0.004748,0.004954,0.00497,0.00514,0.004978,0.004976,0.0003172,0.0003156,0.0003182,0.0003164,0.0003148,0.000341,0.0003398,0.000339,0.000341,0.0003396,0.0002044,0.0002058,0.0002052,0.000206,0.0002046,0.0002202,0.00022,0.0002186,0.0002198,0.0002188,0.01088,0.01087,0.010868,0.010872,0.010858,0.0116,0.011602,0.0116,0.011598,0.011608
582,0.005872,0.00588,0.00587,0.005856,0.005872,0.006154,0.006176,0.00643,0.006186,0.00618,0.000385,0.0003848,0.000387,0.0003846,0.0003834,0.0004116,0.0004106,0.0004102,0.0004114,0.0004108,0.000232,0.0002328,0.0002332,0.0002328,0.0002314,0.0002486,0.0002486,0.000247,0.000248,0.0002472,0.011084,0.011072,0.011068,0.011074,0.011058,0.011828,0.011832,0.011828,0.011828,0.01184
584,0.006898,0.006908,0.006894,0.00688,0.006898,0.007254,0.007286,0.007628,0.007296,0.007288,0.0005272,0.0005266,0.0005278,0.0005256,0.0005232,0.0005538,0.0005532,0.0005536,0.0005544,0.0005532,0.0002766,0.0002778,0.0002774,0.0002776,0.0002756,0.0002948,0.0002946,0.0002928,0.0002942,0.000293,0.011116,0.011104,0.0111,0.011108,0.011094,0.01187,0.011872,0.01187,0.011872,0.01188
586,0.007826,0.007834,0.007824,0.007808,0.007828,0.008258,0.008304,0.008702,0.00831,0.008306,0.0008324,0.000832,0.0008326,0.000831,0.0008264,0.000864,0.0008648,0.0008686,0.000866,0.0008684,0.0003578,0.0003592,0.0003592,0.0003588,0.0003572,0.000379,0.0003788,0.0003778,0.0003774,0.000377,0.010988,0.010978,0.010972,0.010984,0.010968,0.011742,0.011744,0.01174,0.01174,0.011754
588,0.00838,0.008388,0.008378,0.008364,0.008386,0.00888,0.008926,0.009274,0.008932,0.008926,0.001193,0.0011924,0.0011934,0.0011916,0.0011868,0.0012472,0.001246,0.001249,0.0012482,0.0012534,0.0004658,0.000467,0.0004672,0.0004664,0.0004644,0.0004906,0.0004914,0.0004894,0.00049,0.0004892,0.010804,0.010794,0.010792,0.010804,0.010788,0.011554,0.011558,0.011552,0.011552,0.011566
590,0.008538,0.008548,0.00854,0.008524,0.008548,0.009114,0.009138,0.009268,0.009138,0.009136,0.0015182,0.0015188,0.0015194,0.001518,0.0015134,0.0016034,0.0016024,0.001606,0.0016046,0.0016094,0.000603,0.000604,0.0006034,0.0006032,0.000601,0.0006334,0.0006352,0.0006326,0.0006332,0.0006324,0.010554,0.010544,0.010544,0.010554,0.010538,0.011292,0.011294,0.011288,0.011292,0.011304
592,0.008158,0.008168,0.00816,0.008148,0.008172,0.008796,0.00878,0.008614,0.008776,0.008776,0.001726,0.0017266,0.0017282,0.0017268,0.0017226,0.0018392,0.0018394,0.001843,0.0018404,0.0018448,0.0007734,0.0007736,0.0007728,0.0007732,0.0007714,0.0008114,0.0008138,0.0008112,0.000811,0.0008104,0.010248,0.01024,0.01024,0.010248,0.010234,0.010974,0.010976,0.010968,0.010974,0.010986
594,0.007208,0.007218,0.007214,0.007202,0.007228,0.007862,0.007812,0.007464,0.007808,0.007808,0.001814,0.0018146,0.0018144,0.0018148,0.0018108,0.0019462,0.0019434,0.0019466,0.001945,0.0019458,0.000977,0.0009764,0.0009764,0.0009764,0.0009732,0.001025,0.001028,0.0010248,0.0010244,0.0010236,0.009898,0.009892,0.009894,0.009902,0.009886,0.010608,0.010612,0.010602,0.010608,0.010622
596,0.005706,0.005716,0.005714,0.005706,0.005726,0.00629,0.006238,0.005908,0.006228,0.006232,0.0018074,0.0018086,0.0018096,0.0018084,0.0018046,0.0019478,0.0019458,0.0019482,0.0019466,0.0019426,0.0012308,0.0012302,0.0012298,0.0012296,0.0012278,0.0012932,0.0012964,0.0012922,0.0012916,0.0012916,0.009454,0.009448,0.00945,0.009458,0.009446,0.01014,0.010146,0.010138,0.010142,0.010154
598,0.004258,0.004262,0.004264,0.004258,0.004274,0.00472,0.004686,0.004478,0.004676,0.00468,0.0017324,0.0017334,0.0017358,0.0017334,0.0017298,0.0018714,0.001873,0.0018734,0.0018718,0.0018676,0.0014874,0.0014866,0.0014858,0.0014856,0.001483,0.0015634,0.0015688,0.0015626,0.0015622,0.001562,0.009028,0.00902,0.009022,0.009028,0.009018,0.009688,0.009692,0.009688,0.00969,0.009706
600,0.003014,0.003014,0.003022,0.003018,0.003028,0.003354,0.003336,0.003232,0.003328,0.00333,0.0015714,0.0015726,0.001576,0.001575,0.0015702,0.001709,0.0017106,0.0017088,0.00171,0.001704,0.0017482,0.0017472,0.001746,0.0017462,0.0017434,0.00184,0.001848,0.0018398,0.0018394,0.0018386,0.008606,0.0086,0.008602,0.008606,0.0086,0.009242,0.009246,0.00924,0.009244,0.009256
602,0.002012,0.00201,0.002016,0.002014,0.00202,0.002244,0.002238,0.002196,0.002232,0.002232,0.0013048,0.0013058,0.0013082,0.001307,0.0013048,0.0014326,0.001433,0.0014322,0.0014326,0.0014242,0.002006,0.002004,0.002002,0.002002,0.002,0.002114,0.002124,0.002114,0.002112,0.002114,0.008192,0.00818,0.008186,0.008192,0.008184,0.008798,0.008802,0.008796,0.008798,0.008812
604,0.001213,0.0012114,0.0012146,0.0012158,0.001218,0.0013654,0.0013622,0.001348,0.001359,0.0013604,0.0010092,0.0010096,0.0010122,0.0010108,0.001009,0.0011102,0.0011106,0.0011108,0.001111,0.0011034,0.002252,0.002252,0.00225,0.00225,0.002248,0.002378,0.00239,0.002378,0.002376,0.002376,0.007772,0.007764,0.007766,0.007772,0.007764,0.008352,0.008356,0.00835,0.00835,0.008364
606,0.0006064,0.000606,0.0006088,0.0006122,0.0006116,0.0006888,0.0006908,0.0006852,0.0006878,0.0006894,0.00091,0.0009104,0.0009106,0.0009096,0.0009076,0.0009738,0.0009744,0.0009754,0.0009754,0.0009712,0.00248,0.00248,0.002476,0.002478,0.002474,0.002624,0.00264,0.002624,0.002622,0.002622,0.00726,0.007254,0.007258,0.007262,0.007258,0.007816,0.00782,0.007816,0.007812,0.007828
608,0.0003366,0.0003348,0.000337,0.0003408,0.000339,0.0003776,0.0003772,0.0003766,0.000376,0.0003782,0.001269,0.0012676,0.0012642,0.0012646,0.001261,0.001312,0.0013144,0.0013192,0.0013148,0.001319,0.002606,0.002606,0.002604,0.002606,0.002602,0.00277,0.002786,0.00277,0.00277,0.00277,0.006654,0.006648,0.006652,0.006656,0.00665,0.007182,0.007186,0.007184,0.007182,0.007194
610,0.000257,0.0002536,0.0002576,0.0002596,0.0002586,0.000281,0.0002826,0.0002832,0.0002824,0.0002842,0.0019944,0.0019924,0.001988,0.001989,0.0019836,0.002056,0.002058,0.002068,0.00206,0.002076,0.002618,0.002616,0.002614,0.002616,0.002614,0.0028,0.00281,0.0028,0.0028,0.0028,0.005908,0.005906,0.005906,0.005914,0.005906,0.006402,0.006406,0.0064,0.006402,0.006414
612,0.0002388,0.0002364,0.000239,0.0002404,0.000241,0.0002572,0.0002616,0.000263,0.0002602,0.0002602,0.002918,0.002914,0.002912,0.002912,0.002906,0.003028,0.003028,0.00304,0.00303,0.003066,0.002504,0.002502,0.002502,0.002504,0.002502,0.002702,0.002702,0.002702,0.002702,0.002704,0.005058,0.005058,0.005058,0.005066,0.005056,0.0055,0.005504,0.0055,0.0055,0.00551
614,0.000238,0.0002362,0.0002384,0.000242,0.0002406,0.0002578,0.0002602,0.0002598,0.0002588,0.0002596,0.003908,0.003908,0.003902,0.003904,0.003898,0.00408,0.004078,0.004096,0.00408,0.004148,0.002268,0.002268,0.002266,0.00227,0.00227,0.002472,0.002462,0.002472,0.002472,0.002474,0.004178,0.004176,0.004178,0.004182,0.004178,0.004554,0.004564,0.004558,0.004556,0.004566
616,0.0002506,0.0002504,0.0002494,0.0002546,0.000252,0.0002684,0.0002728,0.0002722,0.00027,0.00027,0.004976,0.004972,0.004968,0.00497,0.004962,0.005214,0.005212,0.005236,0.00521,0.005318,0.0018928,0.0018926,0.001892,0.0018944,0.0018944,0.002084,0.002072,0.002084,0.002084,0.002086,0.003228,0.003228,0.00323,0.003232,0.00323,0.003538,0.003546,0.003536,0.003536,0.003546
618,0.0002758,0.0002746,0.0002752,0.000279,0.0002754,0.0002944,0.0002974,0.0002966,0.000296,0.0002952,0.005942,0.00594,0.005934,0.005936,0.00593,0.006246,0.006242,0.006274,0.006238,0.006392,0.001464,0.0014644,0.0014638,0.0014666,0.0014662,0.001628,0.001617,0.0016278,0.001627,0.0016288,0.00236,0.002366,0.002364,0.002368,0.002366,0.002606,0.002608,0.002606,0.002602,0.002606
620,0.0003162,0.0003168,0.0003154,0.0003192,0.000317,0.0003364,0.0003398,0.0003408,0.000339,0.0003368,0.006766,0.006762,0.006758,0.00676,0.006756,0.007126,0.00712,0.007162,0.007116,0.007314,0.001044,0.0010446,0.0010442,0.0010462,0.001047,0.0011716,0.0011648,0.0011718,0.0011712,0.0011724,0.0016228,0.0016252,0.001626,0.0016284,0.0016272,0.0018036,0.0018066,0.0018074,0.001802,0.0018048
622,0.0003806,0.0003786,0.0003768,0.0003814,0.0003798,0.0003978,0.0004032,0.0004046,0.0004028,0.0004012,0.007452,0.007446,0.007444,0.007446,0.007442,0.007868,0.007856,0.007906,0.007852,0.008082,0.0006916,0.0006922,0.000692,0.0006926,0.0006944,0.0007774,0.0007746,0.0007784,0.0007774,0.0007784,0.001033,0.0010346,0.0010374,0.001038,0.0010358,0.0011504,0.0011548,0.0011536,0.00115,0.0011504
624,0.0004636,0.000462,0.0004618,0.000463,0.000462,0.0004844,0.0004896,0.0004898,0.0004878,0.0004872,0.007922,0.007918,0.007916,0.007916,0.007914,0.008392,0.00838,0.008428,0.008374,0.008584,0.0005304,0.0005294,0.000529,0.0005294,0.0005308,0.0005754,0.0005744,0.0005758,0.000575,0.0005754,0.000725,0.0007264,0.0007242,0.0007288,0.0007252,0.0007894,0.0007936,0.0007886,0.000788,0.0007882
626,0.0005818,0.0005788,0.0005782,0.0005798,0.000577,0.0006052,0.0006108,0.0006126,0.0006106,0.0006088,0.00815,0.008148,0.008148,0.008148,0.008146,0.008668,0.008664,0.008692,0.008658,0.00876,0.0006578,0.000655,0.0006552,0.0006554,0.000656,0.0006782,0.0006786,0.00068,0.0006792,0.0006786,0.0008024,0.0008036,0.0008004,0.0008012,0.0007996,0.0008364,0.0008396,0.0008382,0.0008368,0.0008338
628,0.0007198,0.0007176,0.000714,0.0007188,0.0007158,0.0007526,0.0007572,0.0007564,0.0007538,0.0007546,0.008118,0.008114,0.008118,0.00812,0.008116,0.008666,0.008672,0.00867,0.008662,0.008638,0.000991,0.0009884,0.0009868,0.0009878,0.0009878,0.0010138,0.0010176,0.0010148,0.0010142,0.0010136,0.0011532,0.0011484,0.0011468,0.0011478,0.0011446,0.0011884,0.0011896,0.0011904,0.001187,0.0011852
630,0.0008658,0.0008656,0.0008614,0.000865,0.0008622,0.0009078,0.0009114,0.0009118,0.000908,0.0009104,0.007916,0.007912,0.007914,0.007916,0.007916,0.008472,0.008486,0.008462,0.008476,0.008368,0.001388,0.001384,0.0013828,0.0013838,0.001383,0.0014268,0.001432,0.001427,0.001426,0.0014258,0.0015786,0.0015756,0.0015748,0.001578,0.0015738,0.0016374,0.00164,0.0016394,0.0016382,0.0016346
632,0.0010214,0.0010228,0.0010162,0.0010188,0.0010166,0.001073,0.0010764,0.0010738,0.0010742,0.0010738,0.007598,0.007594,0.007598,0.0076,0.0076,0.008146,0.008164,0.008128,0.008152,0.00801,0.0018038,0.0017998,0.0017984,0.0017992,0.0017974,0.001864,0.001872,0.0018642,0.0018632,0.0018624,0.00203,0.002026,0.002028,0.00203,0.002024,0.002116,0.002118,0.002118,0.002118,0.002116
634,0.0011864,0.001185,0.0011804,0.0011808,0.0011804,0.0012428,0.0012486,0.001245,0.001248,0.0012446,0.007222,0.007216,0.00722,0.007226,0.007224,0.007748,0.007764,0.007726,0.007752,0.007612,0.00222,0.002216,0.002214,0.002216,0.002214,0.002304,0.002314,0.002306,0.002302,0.002302,0.002488,0.002482,0.002482,0.002484,0.002474,0.0026,0.0026,0.002598,0.002598,0.002596
636,0.0013586,0.0013598,0.0013518,0.0013542,0.0013518,0.00143,0.001433,0.0014332,0.0014282,0.0014282,0.006782,0.00678,0.00678,0.006786,0.006784,0.00727,0.007286,0.007252,0.007276,0.007162,0.002662,0.002658,0.002654,0.002658,0.002656,0.002772,0.002786,0.002774,0.002772,0.00277,0.002964,0.002958,0.002956,0.002958,0.002952,0.003108,0.003112,0.003108,0.003106,0.003104
638,0.0015114,0.0015096,0.0015042,0.0015088,0.0015064,0.0015932,0.0015956,0.001592,0.0015932,0.00159,0.006384,0.006378,0.006382,0.006386,0.006386,0.006838,0.00685,0.006824,0.006842,0.006754,0.003038,0.003034,0.00303,0.003032,0.00303,0.003172,0.00319,0.003174,0.003172,0.00317,0.003358,0.003346,0.00335,0.003354,0.003344,0.003532,0.003534,0.00353,0.003532,0.00353
640,0.0016568,0.0016556,0.00165,0.0016506,0.00165,0.0017472,0.0017482,0.0017432,0.0017462,0.0017448,0.006038,0.006032,0.006036,0.006038,0.006038,0.006462,0.006472,0.00645,0.00646,0.006394,0.003332,0.003328,0.003324,0.003328,0.003326,0.003494,0.003512,0.003496,0.003494,0.003492,0.003626,0.003618,0.00362,0.003624,0.003612,0.00383,0.003836,0.00383,0.00383,0.00383
642,0.0017914,0.0017876,0.0017822,0.0017836,0.0017798,0.0018898,0.0018896,0.0018882,0.0018848,0.0018844,0.005724,0.005718,0.005722,0.005724,0.005724,0.006118,0.006128,0.006108,0.006116,0.006068,0.003516,0.003512,0.003508,0.003512,0.00351,0.003704,0.00372,0.003706,0.003704,0.003702,0.003724,0.003722,0.003726,0.003728,0.003712,0.003956,0.003958,0.003956,0.00395,0.003954
644,0.001916,0.0019158,0.0019068,0.001909,0.0019096,0.00202,0.002026,0.00202,0.00202,0.002018,0.005444,0.00544,0.005444,0.005446,0.005444,0.005816,0.005826,0.005806,0.005814,0.00578,0.003586,0.003584,0.00358,0.003584,0.003582,0.003798,0.003804,0.003798,0.003796,0.003794,0.003684,0.00368,0.003686,0.00369,0.003678,0.00392,0.003926,0.00392,0.003914,0.003922
646,0.002056,0.002056,0.002048,0.002048,0.00205,0.00217,0.00217,0.00217,0.002166,0.002168,0.005164,0.005156,0.005164,0.005166,0.005164,0.00551,0.005516,0.005502,0.005508,0.005482,0.003522,0.003518,0.003516,0.00352,0.003518,0.003748,0.003742,0.003746,0.003744,0.003744,0.003532,0.00353,0.00353,0.003538,0.003524,0.003762,0.003764,0.003762,0.00376,0.00376
648,0.00217,0.00217,0.002162,0.002164,0.002166,0.00229,0.002292,0.002286,0.002288,0.002286,0.004944,0.004936,0.004944,0.004946,0.004944,0.00527,0.005272,0.005264,0.005268,0.005246,0.003336,0.003334,0.003332,0.003336,0.003334,0.003568,0.003556,0.003568,0.003566,0.003566,0.003292,0.00329,0.003294,0.003304,0.003286,0.00352,0.00352,0.00352,0.003516,0.00352
650,0.002258,0.002262,0.00225,0.002254,0.002254,0.002386,0.002384,0.002382,0.002382,0.002378,0.004722,0.004716,0.004722,0.004722,0.004722,0.005032,0.005036,0.005026,0.00503,0.005014,0.003022,0.00302,0.00302,0.003024,0.003022,0.003252,0.003236,0.003252,0.003252,0.00325,0.002942,0.00294,0.002944,0.002954,0.002936,0.003156,0.00316,0.003158,0.003152,0.00316
652,0.002316,0.00232,0.00231,0.00231,0.002314,0.00245,0.00245,0.002444,0.002446,0.002444,0.004472,0.004466,0.004474,0.004474,0.004474,0.004768,0.004772,0.00476,0.004766,0.004754,0.002588,0.002588,0.002586,0.00259,0.00259,0.002804,0.002786,0.002804,0.002802,0.0028,0.00251,0.002508,0.002512,0.00252,0.002506,0.002702,0.002704,0.002702,0.002696,0.002704
654,0.002356,0.00236,0.002346,0.002348,0.002358,0.002496,0.002492,0.002488,0.002486,0.00249,0.004222,0.004214,0.004226,0.004224,0.004222,0.004502,0.004502,0.004494,0.004498,0.004488,0.00209,0.00209,0.002088,0.002092,0.002092,0.002278,0.002266,0.002278,0.002276,0.002276,0.00204,0.002042,0.002048,0.002052,0.002036,0.00221,0.002204,0.002202,0.002204,0.002208
656,0.002392,0.002394,0.002386,0.002386,0.00239,0.002532,0.002534,0.002528,0.00253,0.002526,0.003978,0.003968,0.003982,0.003978,0.003976,0.00424,0.00424,0.004236,0.004236,0.00423,0.0015452,0.0015454,0.0015456,0.001548,0.0015478,0.0016986,0.001686,0.0016954,0.001696,0.0016966,0.0015348,0.0015378,0.0015428,0.001546,0.0015348,0.001669,0.001666,0.0016686,0.0016652,0.0016736
658,0.002422,0.002424,0.00242,0.002418,0.002424,0.002568,0.002566,0.002556,0.002562,0.002562,0.003798,0.003786,0.0038,0.0038,0.003794,0.004044,0.004046,0.004042,0.004044,0.004038,0.0011062,0.0011082,0.0011084,0.00111,0.0011092,0.001225,0.001217,0.001223,0.0012236,0.001223,0.0011236,0.0011238,0.001129,0.0011364,0.001127,0.0012316,0.001229,0.001232,0.0012274,0.0012336
660,0.002444,0.002444,0.002442,0.002436,0.002444,0.002592,0.002592,0.002586,0.002588,0.002588,0.003638,0.00363,0.003642,0.00364,0.003638,0.003876,0.00388,0.003874,0.003876,0.003872,0.000724,0.0007272,0.0007264,0.0007268,0.0007274,0.0008112,0.0008068,0.0008096,0.0008102,0.0008098,0.0007534,0.0007582,0.0007646,0.0007662,0.0007586,0.0008356,0.0008344,0.0008348,0.0008358,0.0008382
662,0.002446,0.002448,0.002444,0.002438,0.002446,0.0026,0.002596,0.002586,0.002596,0.002594,0.003484,0.003474,0.003486,0.003482,0.003478,0.003714,0.003716,0.003712,0.00371,0.003712,0.0004138,0.0004146,0.0004164,0.0004146,0.0004156,0.0004712,0.0004678,0.0004704,0.0004694,0.0004696,0.0004468,0.0004564,0.0004596,0.0004544,0.0004544,0.000505,0.0005032,0.000507,0.000502,0.0005102
664,0.00239,0.00239,0.00239,0.002382,0.002394,0.002546,0.002544,0.002534,0.002542,0.00254,0.003276,0.003266,0.003284,0.003274,0.003274,0.003504,0.003502,0.0035,0.003498,0.003498,0.0002052,0.0002068,0.000208,0.0002072,0.0002082,0.0002374,0.0002348,0.0002366,0.0002352,0.0002366,0.0002454,0.000249,0.0002518,0.0002536,0.0002518,0.0002766,0.0002778,0.0002746,0.0002748,0.0002842
666,0.002226,0.00223,0.00223,0.00222,0.002232,0.002388,0.002382,0.002374,0.002382,0.00238,0.00297,0.002964,0.002978,0.002974,0.002968,0.00319,0.003188,0.003188,0.00319,0.003184,0.0001207,0.00012402,0.0001235,0.00012306,0.00012142,0.00013786,0.00013582,0.0001362,0.00013392,0.00013606,0.00015998,0.00016498,0.00016342,0.00016922,0.00016684,0.00017886,0.000177,0.00017476,0.00017792,0.00018338
668,0.001992,0.0019988,0.0019976,0.0019922,0.002002,0.00215,0.002142,0.002138,0.002146,0.002142,0.002612,0.002606,0.00262,0.002612,0.002608,0.002814,0.002814,0.002812,0.002814,0.002806,9.988e-05,0.00010342,0.00010176,0.00010052,9.956e-05,0.00011134,0.00010988,0.00010886,0.00010778,0.000109,0.00013834,0.00014274,0.00014002,0.00014016,0.00014418,0.0001482,0.0001517,0.00015004,0.00015028,0.00015838
670,0.0017182,0.0017264,0.0017272,0.00172,0.0017326,0.0018612,0.0018574,0.001853,0.0018596,0.0018576,0.00222,0.002214,0.002224,0.00222,0.002214,0.002402,0.002398,0.002398,0.0024,0.00239,9.278e-05,9.648e-05,9.496e-05,9.386e-05,9.35e-05,0.00010292,0.00010266,0.00010158,9.98e-05,0.00010246,0.00013122,0.00013496,0.0001305,0.00013466,0.00013514,0.00013972,0.00014,0.00014132,0.00014554,0.00015172
672,0.0014204,0.0014286,0.0014318,0.0014244,0.0014366,0.0015494,0.0015392,0.0015438,0.0015478,0.0015436,0.0018124,0.0018066,0.001821,0.0018112,0.0018056,0.0019676,0.0019666,0.0019658,0.001967,0.001961,9.02e-05,9.318e-05,9.106e-05,9.18e-05,9.028e-05,0.0001005,9.93e-05,9.804e-05,9.622e-05,9.69e-05,0.00012202,0.00013214,0.00013162,0.0001301,0.0001312,0.00013308,0.00013524,0.00013814,0.0001371,0.0001428
674,0.0010756,0.001083,0.0010846,0.0010776,0.0010888,0.0011898,0.0011752,0.0011766,0.0011822,0.0011772,0.0013592,0.0013544,0.0013676,0.0013596,0.0013552,0.0014848,0.0014856,0.0014846,0.0014844,0.0014844,8.78e-05,8.886e-05,8.96e-05,8.878e-05,8.78e-05,9.668e-05,9.624e-05,9.562e-05,9.326e-05,9.642e-05,0.00011928,0.00012224,0.0001176,0.00011576,0.0001249,0.00012498,0.00013066,0.00013086,0.00013014,0.00013898
676,0.000766,0.0007692,0.000774,0.0007644,0.0007808,0.000856,0.0008442,0.0008482,0.0008476,0.0008484,0.0009662,0.000963,0.0009706,0.0009654,0.0009614,0.0010662,0.001062,0.0010622,0.0010636,0.0010624,8.538e-05,8.766e-05,8.63e-05,8.584e-05,8.412e-05,9.356e-05,9.35e-05,9.328e-05,9.108e-05,9.326e-05,0.00011134,0.00012234,0.0001129,0.00011292,0.00012534,0.00012144,0.0001239,0.00012606,0.00012944,0.00013386
678,0.0004876,0.0004974,0.0005018,0.0004938,0.0005042,0.000559,0.0005482,0.0005558,0.0005576,0.0005544,0.0006252,0.0006228,0.000629,0.0006254,0.0006196,0.0006988,0.0006964,0.0006956,0.0007004,0.0006966,8.368e-05,8.398e-05,8.35e-05,8.418e-05,8.164e-05,9.064e-05,9.094e-05,9.078e-05,8.942e-05,9.106e-05,0.0001095,0.00011844,0.0001099,0.00011068,0.0001231,0.00012066,0.00012362,0.00012784,0.00012784,0.00012996
680,0.0002776,0.00029,0.0002932,0.000285,0.0002958,0.0003288,0.000318,0.0003276,0.0003278,0.000326,0.0003678,0.0003634,0.0003676,0.0003654,0.0003594,0.0004134,0.0004116,0.0004124,0.0004132,0.000416,8.298e-05,8.27e-05,8.284e-05,8.308e-05,8.04e-05,8.904e-05,8.944e-05,8.902e-05,8.678e-05,8.858e-05,0.00010594,0.00011808,0.00010294,0.00010612,0.000111,0.00011742,0.00012384,0.0001226,0.00012848,0.00013174
682,0.0001615,0.0001746,0.00017456,0.00016654,0.0001817,0.00019556,0.00018622,0.00019588,0.00019378,0.00019062,0.0002226,0.0002204,0.0002246,0.0002224,0.000217,0.000248,0.0002522,0.000246,0.0002488,0.0002534,8.16e-05,8.248e-05,8.172e-05,8.238e-05,8.134e-05,8.992e-05,8.918e-05,8.896e-05,8.608e-05,8.96e-05,0.00011142,0.00011562,0.00010592,0.00010528,0.00011646,0.00012156,0.00012066,0.00012534,0.0001311,0.00012778
684,0.00012306,0.00013348,0.0001329,0.00012908,0.00013584,0.00014704,0.0001398,0.00014838,0.00014466,0.00014708,0.0001713,0.00017062,0.00017108,0.00016728,0.0001646,0.00018164,0.00018582,0.00018098,0.00018572,0.00018834,8.136e-05,8.108e-05,8.124e-05,8.218e-05,8.012e-05,8.818e-05,8.878e-05,8.878e-05,8.6e-05,8.794e-05,0.0001064,0.00011838,0.00010208,0.00010494,0.00011452,0.00011572,0.0001196,0.00012072,0.00012702,0.00013226
686,0.00011126,0.00012532,0.0001239,0.00011878,0.00012276,0.00013584,0.00012474,0.00013894,0.00013548,0.00013548,0.00015584,0.00015376,0.00015792,0.00015268,0.00014864,0.0001669,0.00016654,0.00016604,0.00016728,0.0001711,7.992e-05,7.968e-05,7.916e-05,8.018e-05,7.934e-05,8.756e-05,8.888e-05,8.7e-05,8.534e-05,8.648e-05,0.00010934,0.00011526,0.00010188,9.936e-05,0.00011172,0.00010998,0.00012438,0.00011716,0.00012638,0.00013194
688,0.00010728,0.00012154,0.0001154,0.00011212,0.00011778,0.000127,0.00011734,0.00012404,0.00012762,0.0001284,0.0001465,0.00014584,0.0001442,0.00014326,0.0001433,0.0001547,0.0001564,0.00015282,0.0001569,0.00016272,7.772e-05,7.878e-05,7.772e-05,7.888e-05,7.55e-05,8.554e-05,8.614e-05,8.466e-05,8.492e-05,8.414e-05,0.00010622,0.0001112,9.75e-05,0.00010218,0.00010816,0.00011744,0.00012114,0.00011368,0.00012238,0.00013552
690,0.00010034,0.00011516,0.0001117,0.0001104,0.00011098,0.00012232,0.00011486,0.00012038,0.0001242,0.0001232,0.00013916,0.00014098,0.00013874,0.00013922,0.00013368,0.00014684,0.000152,0.00014356,0.0001505,0.00015532,7.452e-05,7.508e-05,7.52e-05,7.71e-05,7.37e-05,8.24e-05,8.322e-05,8.07e-05,8.202e-05,8.22e-05,0.00010392,0.0001128,0.00010156,0.00010126,0.00010548,0.00011804,0.00012156,0.000116,0.00012706,0.00013104
692,9.986e-05,0.00010484,0.00010908,0.00010414,0.00010752,0.00011238,0.00010712,0.00010662,0.0001177,0.00011642,0.00012954,0.00013346,0.00012888,0.00012728,0.00012624,0.00013704,0.00014028,0.00013482,0.00013878,0.00014606,7.362e-05,7.252e-05,7.204e-05,7.314e-05,7.172e-05,7.896e-05,8.128e-05,7.796e-05,8.014e-05,7.88e-05,0.00010536,0.00010772,9.794e-05,9.6e-05,0.000101,0.0001134,0.00012124,0.00011518,0.00012058,0.00012124
694,9.054e-05,0.00010154,0.0001002,9.712e-05,9.964e-05,0.00010796,0.00010318,0.00010582,0.00010816,0.00011256,0.0001177,0.0001266,0.00011962,0.00012088,0.00011668,0.00012808,0.0001326,0.00012578,0.00012842,0.0001342,7.154e-05,7.06e-05,6.832e-05,6.962e-05,6.96e-05,7.666e-05,7.774e-05,7.63e-05,7.698e-05,7.538e-05,0.00010186,0.00010378,9.542e-05,9.668e-05,0.000101,0.00011774,0.00011976,0.00011142,0.00011592,0.00011642
696,8.934e-05,9.832e-05,9.758e-05,9.436e-05,8.938e-05,0.0001024,0.00010288,9.982e-05,0.00010444,0.00010794,0.0001116,0.00011608,0.00011138,0.00011414,0.0001111,0.00012232,0.0001282,0.00011778,0.00012438,0.00012818,6.922e-05,6.61e-05,6.444e-05,6.702e-05,6.742e-05,7.24e-05,7.656e-05,7.286e-05,7.326e-05,7.376e-05,9.88e-05,0.00010254,9.072e-05,9.836e-05,9.69e-05,0.0001165,0.00011858,0.00011178,0.00011282,0.0001129
698,8.514e-05,9.248e-05,9.148e-05,9.352e-05,8.468e-05,9.304e-05,9.492e-05,9e-05,0.00010058,9.726e-05,0.00010842,0.0001132,0.00010734,0.00010786,0.00010906,0.00011686,0.00012154,0.00011202,0.00011976,0.00012054,6.492e-05,6.324e-05,6.202e-05,6.558e-05,6.444e-05,6.896e-05,7.25e-05,6.984e-05,7.154e-05,6.96e-05,9.558e-05,0.00010138,8.648e-05,9.332e-05,9.396e-05,0.00011374,0.000118,0.00010728,0.00011336,0.00011274
700,8.538e-05,8.792e-05,8.504e-05,8.754e-05,7.906e-05,9.074e-05,9.308e-05,8.594e-05,9.006e-05,9.058e-05,0.0001042,0.0001074,0.00010038,0.00010258,9.99e-05,0.00010702,0.00011344,0.00010304,0.00011056,0.00010454,6.024e-05,6e-05,6.026e-05,6.268e-05,6.058e-05,6.624e-05,6.884e-05,6.578e-05,6.962e-05,6.53e-05,9.332e-05,9.468e-05,8.674e-05,9.044e-05,9.304e-05,0.00011142,0.00011556,9.548e-05,0.00010544,0.00010766
702,8.056e-05,8.604e-05,8.268e-05,8.228e-05,7.56e-05,7.972e-05,8.41e-05,8.582e-05,8.286e-05,8.754e-05,9.424e-05,0.00010354,8.996e-05,9.99e-05,9.402e-05,9.67e-05,0.00010732,9.476e-05,0.00010272,0.00010566,5.826e-05,5.578e-05,5.54e-05,6.01e-05,5.642e-05,6.078e-05,6.628e-05,6.262e-05,6.684e-05,6.256e-05,9.49e-05,9.15e-05,8.934e-05,9.08e-05,9.49e-05,0.00011254,0.00010756,0.00010386,9.948e-05,0.00010386
704,7.816e-05,8.068e-05,7.68e-05,8.15e-05,7.54e-05,7.922e-05,8.712e-05,8.02e-05,8.702e-05,8.762e-05,9.258e-05,9.964e-05,8.56e-05,9.218e-05,9.078e-05,9.352e-05,0.00010296,9.116e-05,9.866e-05,9.67e-05,5.622e-05,5.302e-05,5.312e-05,5.724e-05,5.396e-05,5.92e-05,6.328e-05,5.832e-05,6.386e-05,5.948e-05,8.892e-05,8.918e-05,9.152e-05,8.732e-05,8.762e-05,0.00010974,0.00010664,0.00010408,9.748e-05,0.0001036
706,7.538e-05,8.234e-05,7.442e-05,7.978e-05,6.87e-05,7.16e-05,8.464e-05,7.91e-05,8.872e-05,8.464e-05,8.458e-05,9.41e-05,8.258e-05,8.972e-05,9.02e-05,8.998e-05,9.734e-05,8.866e-05,9.336e-05,8.588e-05,5.176e-05,5.006e-05,5.18e-05,5.424e-05,5.168e-05,5.59e-05,5.974e-05,5.464e-05,6.032e-05,5.776e-05,9.324e-05,9.282e-05,8.942e-05,8.512e-05,8.358e-05,0.00010638,0.00010524,9.844e-05,0.00010004,9.796e-05
708,7.208e-05,7.38e-05,6.94e-05,7.626e-05,6.652e-05,6.994e-05,8.394e-05,7.518e-05,7.926e-05,8.466e-05,8.012e-05,9.1e-05,7.856e-05,8.844e-05,8.778e-05,8.282e-05,9.572e-05,8.29e-05,8.662e-05,8.836e-05,4.914e-05,4.732e-05,4.878e-05,4.996e-05,4.866e-05,5.346e-05,5.606e-05,5.322e-05,5.822e-05,5.504e-05,8.59e-05,8.628e-05,8.952e-05,7.906e-05,8.622e-05,0.0001087,0.00010416,9.666e-05,9.328e-05,0.00010324
710,7.184e-05,6.998e-05,6.1e-05,7.282e-05,6.214e-05,6.426e-05,7.638e-05,7.102e-05,7.856e-05,7.356e-05,8.05e-05,8.564e-05,7.754e-05,7.82e-05,8.31e-05,8.068e-05,9.386e-05,8.208e-05,8.616e-05,8.664e-05,4.714e-05,4.588e-05,4.62e-05,4.802e-05,4.55e-05,5.218e-05,5.244e-05,5.254e-05,5.622e-05,5.006e-05,8.852e-05,7.734e-05,8.516e-05,8.022e-05,8.434e-05,9.788e-05,0.00010244,9.248e-05,8.986e-05,9.164e-05
712,7.006e-05,7.214e-05,6.71e-05,7.244e-05,6.008e-05,5.79e-05,7.604e-05,6.76e-05,7.57e-05,7.348e-05,7.544e-05,8.226e-05,7.224e-05,7.614e-05,8.52e-05,8.05e-05,8.718e-05,8.154e-05,8.644e-05,8.914e-05,4.542e-05,4.366e-05,4.278e-05,4.62e-05,4.198e-05,4.964e-05,4.994e-05,4.836e-05,5.29e-05,4.944e-05,9.39e-05,7.132e-05,7.802e-05,7.912e-05,8.14e-05,9.774e-05,8.968e-05,8.792e-05,8.968e-05,8.2e-05
714,6.708e-05,6.696e-05,6.26e-05,6.872e-05,6.116e-05,6.302e-05,7.016e-05,6.804e-05,6.718e-05,7.12e-05,7.2e-05,8.268e-05,6.976e-05,7.674e-05,7.874e-05,7.886e-05,8.608e-05,8.046e-05,8.354e-05,8.482e-05,4.194e-05,4.076e-05,4.11e-05,4.352e-05,4.026e-05,4.554e-05,4.798e-05,4.532e-05,5.234e-05,4.548e-05,9.01e-05,7.14e-05,8.754e-05,7.608e-05,7.958e-05,9.736e-05,9.286e-05,8.72e-05,9.08e-05,7.976e-05
716,6.256e-05,5.71e-05,5.286e-05,6.6e-05,5.006e-05,6.388e-05,6.658e-05,6.924e-05,6.642e-05,7.078e-05,6.702e-05,7.886e-05,7.174e-05,7.412e-05,7.77e-05,7.58e-05,7.984e-05,7.118e-05,8.048e-05,8.458e-05,3.804e-05,3.764e-05,3.748e-05,4.158e-05,3.876e-05,4.508e-05,4.476e-05,4.342e-05,4.952e-05,4.278e-05,8.036e-05,6.814e-05,7.242e-05,7.062e-05,8.508e-05,8.988e-05,8.718e-05,8.106e-05,8.602e-05,7.468e-05
718,6.014e-05,5.77e-05,4.998e-05,6.408e-05,4.602e-05,5.382e-05,5.774e-05,6.578e-05,5.97e-05,6.102e-05,6.59e-05,7.318e-05,6.89e-05,6.762e-05,7.252e-05,7.572e-05,7.898e-05,7.256e-05,7.888e-05,7.564e-05,3.554e-05,3.544e-05,3.502e-05,3.884e-05,3.604e-05,4.168e-05,4.184e-05,4.06e-05,4.704e-05,3.956e-05,7.806e-05,6.202e-05,7.038e-05,6.732e-05,6.868e-05,8.958e-05,7.778e-05,7.758e-05,7.492e-05,6.82e-05
720,6.036e-05,5.088e-05,4.934e-05,5.692e-05,5.096e-05,5.148e-05,5.732e-05,6.24e-05,5.16e-05,5.86e-05,6.242e-05,7.024e-05,6.828e-05,6.116e-05,6.954e-05,7.122e-05,7.458e-05,6.692e-05,7.222e-05,6.948e-05,3.562e-05,3.542e-05,3.338e-05,3.646e-05,3.178e-05,4.202e-05,4.008e-05,3.672e-05,4.44e-05,3.994e-05,7.846e-05,5.13e-05,7.188e-05,7.068e-05,7.2e-05,8.188e-05,7.98e-05,7.6e-05,6.99e-05,6.388e-05
722,5.136e-05,5.016e-05,4.474e-05,5.702e-05,4.552e-05,4.656e-05,5.374e-05,5.598e-05,5.494e-05,5.416e-05,5.54e-05,6.244e-05,6.4e-05,6.17e-05,6.548e-05,6.622e-05,6.782e-05,6.694e-05,6.86e-05,7.598e-05,3.33e-05,3.402e-05,3.134e-05,3.514e-05,3.152e-05,3.962e-05,3.862e-05,3.502e-05,4.254e-05,3.87e-05,6.754e-05,5.284e-05,6.014e-05,5.848e-05,6.88e-05,7.342e-05,7.952e-05,6.946e-05,6.316e-05,6.184e-05
724,4.93e-05,4.898e-05,3.918e-05,5.116e-05,4.34e-05,3.584e-05,4.472e-05,4.008e-05,4.772e-05,5.524e-05,5.156e-05,5.654e-05,6.494e-05,6.062e-05,6.09e-05,6.5e-05,6.38e-05,6.03e-05,6.33e-05,7.226e-05,3.218e-05,3.254e-05,3.216e-05,3.396e-05,3.08e-05,3.902e-05,3.894e-05,3.504e-05,4.252e-05,3.856e-05,7.356e-05,5.086e-05,5.43e-05,5.728e-05,5.932e-05,6.764e-05,7.642e-05,5.698e-05,6.908e-05,5.832e-05
726,4.994e-05,3.634e-05,3.624e-05,4.294e-05,4.678e-05,3.834e-05,4.622e-05,4.258e-05,4.326e-05,5.088e-05,5.372e-05,6.052e-05,6.012e-05,5.418e-05,5.77e-05,6.086e-05,5.952e-05,5.792e-05,6.202e-05,6.024e-05,3.218e-05,3.354e-05,3.12e-05,3.228e-05,3.136e-05,4.214e-05,3.782e-05,3.79e-05,4.206e-05,3.568e-05,7.026e-05,4.676e-05,6.368e-05,6.134e-05,7.06e-05,7.622e-05,7.23e-05,7.728e-05,7.302e-05,5.974e-05
728,4.244e-05,3.738e-05,3.374e-05,4.656e-05,3.85e-05,3.788e-05,3.688e-05,5.148e-05,4.1e-05,4.338e-05,5.148e-05,5.576e-05,6.136e-05,4.93e-05,5.234e-05,5.896e-05,6.024e-05,6.012e-05,5.656e-05,5.834e-05,2.646e-05,3.248e-05,3.152e-05,3.266e-05,2.908e-05,4.102e-05,3.086e-05,3.622e-05,4.052e-05,3.346e-05,6.556e-05,4.542e-05,6.524e-05,5.384e-05,6.236e-05,5.892e-05,6.368e-05,7.088e-05,6.31e-05,5.066e-05
730,3.61e-05,3.398e-05,2.932e-05,3.886e-05,3.702e-05,3.566e-05,4.062e-05,3.408e-05,3.676e-05,3.474e-05,5.03e-05,5.374e-05,5.838e-05,5.046e-05,5.338e-05,6.148e-05,5.54e-05,5.618e-05,5.354e-05,6.564e-05,2.842e-05,3.24e-05,3.104e-05,3.204e-05,2.924e-05,4.05e-05,3.542e-05,3.504e-05,4.216e-05,3.324e-05,6.72e-05,4.494e-05,5.572e-05,4.59e-05,6.378e-05,6.28e-05,6.248e-05,6.984e-05,6.854e-05,4.702e-05
732,3.728e-05,3.222e-05,3.026e-05,3.868e-05,3.324e-05,3.378e-05,3.652e-05,3.28e-05,3.328e-05,3.274e-05,4.644e-05,5.33e-05,5.532e-05,4.712e-05,5.128e-05,5.522e-05,5.196e-05,5.198e-05,5.354e-05,6.214e-05,2.912e-05,3.084e-05,3.254e-05,3.07e-05,3.138e-05,3.976e-05,3.712e-05,3.642e-05,4.226e-05,3.484e-05,6.944e-05,4.07e-05,5.088e-05,5.402e-05,6.114e-05,5.97e-05,6.864e-05,7.622e-05,7.39e-05,5.06e-05
734,3.214e-05,3.23e-05,3.426e-05,3.808e-05,2.982e-05,3.546e-05,3.01e-05,3.308e-05,3.492e-05,2.326e-05,5.088e-05,4.558e-05,5.52e-05,4.796e-05,5.246e-05,5.948e-05,4.454e-05,5.824e-05,5.37e-05,5.832e-05,2.648e-05,3.092e-05,3.07e-05,2.992e-05,3.248e-05,3.918e-05,3.53e-05,3.614e-05,4.068e-05,3.706e-05,6.45e-05,3.76e-05,4.104e-05,5.92e-05,5.92e-05,5.034e-05,5.768e-05,6.842e-05,5.806e-05,5.098e-05
736,2.41e-05,1.7242e-05,3.004e-05,2.658e-05,2.994e-05,3.042e-05,2.25e-05,2.914e-05,2.336e-05,1.9046e-05,4.816e-05,4.904e-05,5.65e-05,4.786e-05,4.804e-05,5.186e-05,3.532e-05,5.294e-05,5.05e-05,4.926e-05,2.272e-05,2.884e-05,2.61e-05,2.768e-05,2.604e-05,3.42e-05,3.042e-05,2.92e-05,3.482e-05,3.124e-05,7.132e-05,3.258e-05,4.564e-05,5.098e-05,4.906e-05,4.394e-05,4.5e-05,6.068e-05,5.982e-05,3.31e-05
738,2.046e-05,2.22e-05,2.11e-05,2.086e-05,2.928e-05,3.304e-05,2.188e-05,2.608e-05,2.89e-05,1.4494e-05,4.508e-05,4.162e-05,5.352e-05,3.852e-05,4.884e-05,4.562e-05,3.506e-05,4.98e-05,4.468e-05,4.918e-05,2.254e-05,2.6e-05,2.342e-05,2.348e-05,2.668e-05,3.034e-05,2.762e-05,2.68e-05,3.236e-05,2.686e-05,5.302e-05,2.92e-05,2.96e-05,4.394e-05,5.748e-05,3.918e-05,4.702e-05,5.032e-05,6.372e-05,2.548e-05
740,1.564e-05,1.7154e-05,1.8032e-05,1.5766e-05,2.194e-05,3.04e-05,1.856e-05,2.624e-05,2.118e-05,1.7056e-05,4.84e-05,3.944e-05,4.4e-05,4.206e-05,4.868e-05,4.146e-05,3.704e-05,4.596e-05,4.784e-05,5.256e-05,1.9166e-05,2.424e-05,2.198e-05,2.23e-05,2.236e-05,2.806e-05,2.438e-05,2.406e-05,2.884e-05,2.39e-05,5.544e-05,4.158e-05,2.604e-05,2.688e-05,3.974e-05,3.04e-05,3.804e-05,5.496e-05,6.716e-05,3.586e-05
742,1.4022e-05,2.114e-05,1.3644e-05,1.3338e-05,2.228e-05,2.852e-05,6.436e-06,1.5128e-05,2.544e-05,1.8502e-05,4.896e-05,3.48e-05,5.424e-05,4.75e-05,5.002e-05,4.1e-05,3.264e-05,4.068e-05,3.986e-05,4.814e-05,1.8342e-05,2.432e-05,2.036e-05,1.8694e-05,2.122e-05,2.804e-05,2.506e-05,2.274e-05,2.372e-05,1.955e-05,5.396e-05,2.888e-05,2.238e-05,3.362e-05,3.852e-05,2.952e-05,3.828e-05,4.384e-05,5.532e-05,3.378e-05
744,9.554e-06,1.4194e-05,2.404e-05,5.808e-06,1.4072e-05,3.176e-05,9.75e-06,2.4e-05,2.954e-05,1.119e-05,4.794e-05,3.686e-05,5.28e-05,4.13e-05,4.39e-05,4.15e-05,3.656e-05,3.664e-05,4.008e-05,4.968e-05,1.2738e-05,1.9086e-05,1.8338e-05,1.5738e-05,1.797e-05,2.232e-05,2.2e-05,1.826e-05,2.13e-05,1.8714e-05,3.526e-05,2.938e-05,1.9748e-05,2.264e-05,3.04e-05,1.4114e-05,3.57e-05,3.696e-05,6.844e-05,2.766e-05
746,1.471e-06,4.108e-06,2.082e-05,4.904e-07,1.349e-05,2.574e-05,1.417e-05,1.3518e-05,3.346e-05,1.8648e-05,5.114e-05,2.98e-05,5.43e-05,3.726e-05,3.832e-05,4.072e-05,2.98e-05,4.062e-05,3.676e-05,4.496e-05,1.5728e-05,1.8132e-05,1.745e-05,1.845e-05,1.696e-05,1.9882e-05,2.168e-05,1.8192e-05,2.194e-05,1.9416e-05,4.642e-05,3.17e-05,2.714e-05,2.188e-05,2.638e-05,9.158e-06,2.41e-05,4.482e-05,4.442e-05,3.044e-05
748,2.41e-06,3.214e-06,2.278e-05,8.034e-07,1.7098e-05,3.618e-05,1.9558e-05,3.532e-05,3.456e-05,1.2284e-05,4.704e-05,3.524e-05,5.144e-05,4.714e-05,3.642e-05,4.626e-05,3.122e-05,3.564e-05,4.108e-05,4.838e-05,1.3746e-05,2.082e-05,2.03e-05,1.1848e-05,1.6204e-05,1.928e-05,2.08e-05,1.8132e-05,1.9272e-05,1.3416e-05,4.31e-05,3.338e-05,2.048e-05,3.124e-05,3.244e-05,1.064e-05,2.11e-05,3.41e-05,3.748e-05,2.354e-05
750,0,7.112e-06,3.44e-05,2.37e-06,1.0348e-05,3.62e-05,2.144e-05,3.724e-05,3.584e-05,1.8476e-06,4.722e-05,4.004e-05,4.2e-05,4.044e-05,4.342e-05,4.05e-05,3.456e-05,4.094e-05,3.926e-05,4.48e-05,1.172e-05,1.9444e-05,1.5502e-05,1.2224e-05,1.3864e-05,2.068e-05,2.11e-05,2.186e-05,1.511e-05,2.042e-05,2.672e-05,2.894e-05,2.4e-05,2.58e-05,1.9768e-05,1.541e-05,2.128e-05,4.598e-05,5.232e-05,4.474e-05
752,1.0298e-05,1.1416e-06,3.124e-05,6.092e-06,1.987e-05,3.054e-05,2.622e-05,1.4472e-05,3.704e-05,9.15e-06,5.362e-05,2.902e-05,5.364e-05,3.992e-05,4.184e-05,3.97e-05,2.89e-05,5.002e-05,3.928e-05,3.996e-05,1.5592e-05,1.9964e-05,1.9008e-05,1.4136e-05,1.5022e-05,1.728e-05,1.3722e-05,1.9466e-05,1.6956e-05,1.6504e-05,3.21e-05,4.126e-05,4.298e-05,2.154e-05,1.0378e-05,3.622e-06,2.91e-06,4.424e-05,5.43e-05,6.166e-05
754,2.67e-06,0,3.202e-05,0,2.358e-05,3.518e-05,2.852e-05,4.404e-05,3.814e-05,1.188e-05,5.166e-05,3.348e-05,5.974e-05,5.024e-05,4.194e-05,4.476e-05,2.286e-05,4.186e-05,4.082e-05,4.806e-05,1.1608e-05,1.4024e-05,1.7942e-05,1.3138e-05,1.5206e-05,1.8464e-05,1.7624e-05,1.8544e-05,1.6974e-05,1.3378e-05,3.318e-05,4.808e-05,2.532e-05,2.66e-05,2.346e-05,2.258e-05,4.6e-06,4.396e-05,4.782e-05,5.274e-05
756,0,4.588e-06,3.026e-05,0,2.324e-05,4.32e-05,3.088e-05,3.764e-05,3.476e-05,4.33e-06,5.402e-05,2.902e-05,5.238e-05,4.758e-05,3.736e-05,4.818e-05,3.44e-05,4.494e-05,4.788e-05,3.004e-05,1.3822e-05,1.4298e-05,1.785e-05,1.3994e-05,1.836e-05,1.5614e-05,2.32e-05,2.286e-05,1.157e-05,1.8282e-05,9.984e-06,3.856e-05,2.51e-05,4.06e-05,2.94e-05,2.486e-05,2e-05,3.792e-05,5.382e-05,5.704e-05
758,0,8.762e-06,2.9e-05,6.762e-06,1.7512e-05,3.778e-05,2.204e-05,2.918e-05,3.012e-05,8.102e-06,5.674e-05,2.97e-05,4.682e-05,4.53e-05,4.008e-05,5.33e-05,3.628e-05,4.54e-05,4.506e-05,2.804e-05,1.4796e-05,1.7482e-05,1.5018e-05,1.501e-05,1.6582e-05,1.427e-05,2.772e-05,2.52e-05,1.5038e-05,1.9348e-05,1.6064e-05,2.674e-05,4.644e-05,4.372e-05,2.854e-05,1.4546e-05,1.5496e-05,5.064e-05,5.444e-05,6.422e-05
760,0,1.1646e-05,4.144e-05,1.4498e-06,1.1796e-05,3.528e-05,4.46e-05,4.818e-05,3.69e-05,2.072e-05,6.736e-05,3.858e-05,5.552e-05,4.254e-05,4.508e-05,5.026e-05,2.772e-05,4.478e-05,3.732e-05,2.846e-05,7.884e-06,1.8796e-05,2.066e-05,1.2756e-05,1.0898e-05,1.6498e-05,2.49e-05,2.406e-05,1.4554e-05,1.8448e-05,2.538e-05,5.36e-05,4.926e-05,4e-05,3.306e-05,1.579e-05,6.232e-06,4.568e-05,5.14e-05,4.53e-05
762,0,6.164e-06,5.36e-05,2.264e-06,2.346e-05,5.01e-05,4.374e-05,2.324e-05,2.802e-05,1.1588e-05,5.896e-05,3.494e-05,5.776e-05,4.652e-05,4.44e-05,4.51e-05,3.824e-05,4.23e-05,4.786e-05,3.698e-05,1.2444e-05,1.855e-05,1.7264e-05,1.1136e-05,1.261e-05,1.9008e-05,2.274e-05,2.586e-05,9.258e-06,2.084e-05,1.1116e-05,5.616e-05,2.964e-05,4.804e-05,3.392e-05,1.1392e-05,1.7744e-05,5.156e-05,5.074e-05,6.84e-05
764,0,1.7984e-05,4.874e-05,5.15e-06,3.12e-05,3.51e-05,3.4e-05,3.77e-05,3.198e-05,2.356e-05,5.014e-05,3.356e-05,5.828e-05,4.572e-05,4.646e-05,5.408e-05,4.26e-05,4.72e-05,5.52e-05,3.63e-05,1.4064e-05,1.5348e-05,1.795e-05,1.1306e-05,1.0878e-05,1.4634e-05,2.626e-05,2.042e-05,1.3696e-05,1.8788e-05,2.55e-05,4.904e-05,5.782e-05,6.092e-05,1.8874e-05,2.346e-05,2.966e-05,5.546e-05,4.756e-05,6.456e-05
766,0,2.694e-05,4.64e-05,4.742e-06,2.252e-05,2.44e-05,3.834e-05,5.564e-05,3.032e-05,1.9988e-05,4.942e-05,2.514e-05,5.24e-05,4.74e-05,3.496e-05,5.448e-05,5.568e-05,5.348e-05,5.054e-05,3.512e-05,1.6474e-05,1.2796e-05,1.9496e-05,9.826e-06,1.298e-05,1.7526e-05,2.67e-05,2.418e-05,9.742e-06,1.4122e-05,3.776e-05,6.82e-05,6.924e-05,8.294e-05,4.34e-05,9.35e-06,3.432e-05,5.326e-05,6.42e-05,6.306e-05
768,0,1.9734e-05,4.318e-05,1.4184e-06,3.236e-05,2.852e-05,4.16e-05,4.632e-05,2.56e-05,1.6482e-05,5.054e-05,3.606e-05,4.518e-05,5.062e-05,4.452e-05,5.402e-05,4.152e-05,5.092e-05,5.896e-05,3.482e-05,1.7148e-05,1.2794e-05,1.6342e-05,1.2444e-05,6.098e-06,1.331e-05,1.7054e-05,3.152e-05,1.0904e-05,1.6982e-05,1.794e-05,7.68e-05,5.692e-05,7.46e-05,4.97e-05,3.298e-05,5.74e-05,8.616e-05,5.864e-05,9.188e-05
770,0,3.124e-05,5.234e-05,6.06e-06,2.712e-05,2.934e-05,4.99e-05,6.136e-05,1.7372e-05,2e-05,4.188e-05,3.768e-05,4.494e-05,4.2e-05,3.202e-05,6.596e-05,3.63e-05,4.19e-05,4.242e-05,4.01e-05,1.0032e-05,1.2202e-05,1.5386e-05,1.719e-05,9.496e-06,1.5178e-05,1.6308e-05,2.66e-05,1.4394e-05,1.878e-05,1.7726e-05,7.686e-05,5.278e-05,7.18e-05,4.668e-05,3.272e-05,4.006e-05,9.026e-05,4.122e-05,7.962e-05
772,6.148e-06,5.446e-05,4.72e-05,1.1006e-05,3.586e-05,3.962e-05,6.472e-05,4.88e-05,3.19e-05,1.8634e-05,4.492e-05,4.242e-05,3.92e-05,3.264e-05,2.954e-05,5.658e-05,4.778e-05,3.634e-05,5.344e-05,4.71e-05,9.232e-06,1.2592e-05,1.326e-05,1.679e-05,5.256e-06,1.1246e-05,2.022e-05,2.56e-05,1.4778e-05,1.8702e-05,2.528e-05,8.502e-05,6.736e-05,8.356e-05,5.064e-05,1.7654e-05,4.522e-05,8.4e-05,2.99e-05,0.00011334
774,2.064e-05,4.382e-05,4.04e-05,1.6864e-05,3.286e-05,4.67e-05,5.056e-05,9.118e-05,1.7912e-05,2.78e-05,4.42e-05,3.838e-05,3.27e-05,3.648e-05,4.11e-05,5.154e-05,3.964e-05,5.172e-05,4.852e-05,3.888e-05,1.719e-05,1.5566e-05,1.2692e-05,1.491e-05,3.696e-07,1.3178e-05,2.162e-05,2.692e-05,1.5474e-05,1.947e-05,2.98e-05,9.132e-05,8.032e-05,7.17e-05,6.3e-05,3.138e-05,7.474e-05,9.622e-05,1.6178e-05,0.00010312
776,5.612e-06,5.032e-05,4.106e-05,3.75e-06,3.05e-05,3.232e-05,5.376e-05,3.426e-05,2.216e-05,4.616e-05,4.36e-05,3.836e-05,3.28e-05,5.576e-05,4.664e-05,6.162e-05,4.442e-05,5.236e-05,4.852e-05,1.9738e-05,1.9678e-05,1.1752e-05,1.2708e-05,1.1892e-05,1.78e-07,1.648e-05,2.03e-05,2e-05,1.7722e-05,1.6354e-05,2.462e-05,8.82e-05,9.118e-05,7.258e-05,9.826e-05,2.152e-05,4.688e-05,9.4e-05,2.51e-05,0.00010054
778,5.142e-05,6.26e-05,6.11e-05,1.7884e-05,3.726e-05,3.546e-06,4.874e-05,6.076e-05,2.398e-05,6.012e-05,3.134e-05,4.804e-05,2.532e-05,4.89e-05,4.228e-05,6.352e-05,4.346e-05,6.396e-05,4.832e-05,3.356e-05,1.7222e-05,1.9576e-05,1.5856e-05,1.846e-05,6.564e-06,1.2572e-05,2.788e-05,2.384e-05,1.6338e-05,1.123e-05,5.474e-05,9.47e-05,9.718e-05,9.076e-05,8.78e-05,3.066e-05,5.002e-05,0.0001183,2.634e-05,0.00012044
780,5.196e-05,4.806e-05,4.544e-05,1.3596e-05,4.116e-05,6.89e-06,5.056e-05,7.098e-05,3.33e-05,5.542e-05,2.228e-05,4.184e-05,3.954e-05,4.556e-05,3.938e-05,4.54e-05,5.118e-05,3.652e-05,4.48e-05,4.608e-05,1.9506e-05,1.6658e-05,1.2878e-05,1.418e-05,2.848e-06,1.417e-05,2.228e-05,3.038e-05,1.0444e-05,9.422e-06,6.064e-05,8.702e-05,0.00011118,8.726e-05,9.096e-05,5.832e-05,7.23e-05,0.00011986,1.2898e-05,0.00016016
