Wavelength [nm],Background (Mel),Modulation (Mel),Background (LMS),Modulation (LMS)380,1.077e-05,7.556e-07,1.6724e-05,2.788e-06,7.994e-06,6.406e-06,5.562e-06,4.558e-06,5.058e-06,9.122e-07,2.958e-06,2.454e-06,1.3692e-05,7.904e-06,7.31e-06,7.81e-06,8.462e-06,1.6256e-05,9.59e-06,1.2412e-05,5.914e-07,3.708e-06,4.51e-06,3.476e-06,3.582e-06,4.604e-06,3.28e-06,4.964e-06,2.708e-06,7.31e-06,8.702e-06,1.8068e-05,2.246e-05,2.166e-05,1.6322e-05,1.8366e-05,1.4012e-05,1.8796e-05,1.8412e-05,2.622e-05
382,1.056e-05,8.36e-06,1.606e-05,6.468e-07,1.0574e-05,3.636e-06,7.268e-06,5.696e-06,7.048e-06,2.054e-06,1.3076e-06,8.92e-07,1.2146e-05,8.226e-06,8.182e-06,1.179e-05,8.584e-06,1.3514e-05,8.076e-06,8.708e-06,2.368e-06,4.208e-06,3.78e-06,3.32e-06,2.696e-06,3.296e-06,3.81e-06,6.418e-06,2.06e-06,6.59e-06,1.0858e-05,1.8708e-05,2.722e-05,2.404e-05,1.78e-05,2.326e-05,1.2322e-05,2.398e-05,1.6242e-05,1.9882e-05
384,4.196e-06,6.184e-06,1.7202e-05,6.36e-07,8.986e-06,7.91e-06,5.53e-06,5.83e-06,3.498e-06,8.95e-07,4.982e-06,5.256e-06,9.57e-06,1.1464e-05,9.344e-06,1.1736e-05,5.656e-06,1.2454e-05,1.0032e-05,6.396e-06,3.566e-06,3.384e-06,3.826e-06,3.318e-06,2.166e-06,4.762e-06,4.028e-06,4.624e-06,3.49e-06,6.93e-06,1.0682e-05,1.839e-05,2.15e-05,2.006e-05,1.7266e-05,1.9608e-05,1.3762e-05,1.9784e-05,1.6438e-05,1.6086e-05
386,7.564e-06,9.42e-06,1.9652e-05,1.1062e-06,1.028e-05,6.618e-06,3.494e-06,7.334e-06,5.24e-06,2.25e-06,5.542e-06,7.432e-06,9.566e-06,9.148e-06,9.456e-06,9.83e-06,5.14e-06,1.2896e-05,9.072e-06,1.0688e-05,3.594e-06,3.41e-06,3.318e-06,4.466e-06,2.154e-06,3.298e-06,3.452e-06,4.656e-06,2.754e-06,7.25e-06,8.8e-06,2.284e-05,2.218e-05,2.552e-05,1.7036e-05,1.9178e-05,1.441e-05,1.774e-05,1.742e-05,2.042e-05
388,4.26e-06,6.986e-06,1.4316e-05,1.2206e-06,1.0064e-05,3.438e-06,4.366e-06,2.416e-06,4.356e-06,3.888e-07,1.685e-06,9.35e-06,1.1632e-05,7.67e-06,1.0434e-05,1.1572e-05,3.842e-06,1.4874e-05,7.444e-06,9.694e-06,4.172e-06,3.622e-06,3.34e-06,5.478e-06,3.248e-06,3.102e-06,3.972e-06,4.168e-06,3.396e-06,5.914e-06,8.7e-06,1.7358e-05,1.9718e-05,2.162e-05,1.2164e-05,1.8544e-05,1.2958e-05,1.89e-05,1.9152e-05,1.69e-05
390,4.428e-06,1.1042e-05,1.5138e-05,2.342e-07,1.1204e-05,1.4914e-06,3.702e-06,4.476e-06,5.778e-06,9.278e-07,4.424e-06,9.072e-06,1.3736e-05,9.922e-06,1.0556e-05,1.2186e-05,4.932e-06,1.3166e-05,9.39e-06,7.91e-06,4.886e-06,4.18e-06,3.616e-06,5.26e-06,3.21e-06,3.168e-06,3.11e-06,4.778e-06,2.164e-06,5.142e-06,1.6338e-05,1.5994e-05,1.7984e-05,1.8954e-05,1.44e-05,2.002e-05,1.3092e-05,1.8624e-05,1.6146e-05,2.14e-05
392,5.346e-06,9.924e-06,1.4656e-05,8.41e-07,1.065e-05,1.9552e-06,6.06e-06,7.278e-06,5.27e-06,3.088e-06,4.294e-06,5.672e-06,1.093e-05,1.254e-05,1.0002e-05,1.2548e-05,8.838e-06,1.0456e-05,9.588e-06,7.144e-06,4.656e-06,4.498e-06,2.098e-06,4.47e-06,2.848e-06,2.89e-06,4.506e-06,5.15e-06,2.074e-06,5.984e-06,1.0308e-05,1.6416e-05,1.8806e-05,1.8612e-05,1.2182e-05,1.8422e-05,1.7316e-05,1.6272e-05,1.3426e-05,2.312e-05
394,5.218e-06,5.59e-06,1.5086e-05,1.6126e-06,1.3096e-05,2.918e-07,3.492e-06,6.894e-06,3.2e-06,6.05e-07,3.66e-06,1.1308e-05,7.556e-06,1.3322e-05,1.324e-05,1.0894e-05,7.634e-06,1.1448e-05,8.978e-06,7.55e-06,5.844e-06,5.352e-06,3.008e-06,3.588e-06,4.514e-06,3.022e-06,4.502e-06,4.17e-06,2.024e-06,4.986e-06,9.556e-06,1.3766e-05,1.733e-05,1.6358e-05,9.982e-06,1.7968e-05,1.312e-05,1.5228e-05,2.014e-05,1.9984e-05
396,2.82e-06,6.08e-06,1.476e-05,5.282e-06,1.3724e-05,3.288e-07,2.19e-06,3.724e-06,7.528e-06,6.272e-06,4.592e-06,1.1086e-05,9.59e-06,1.3798e-05,9.014e-06,1.191e-05,7.176e-06,1.0506e-05,1.0078e-05,4.204e-06,5.56e-06,4.706e-06,2.724e-06,3.112e-06,4.112e-06,3.708e-06,3.962e-06,4.204e-06,3.246e-06,4.792e-06,1.159e-05,1.377e-05,2.04e-05,2.124e-05,9.824e-06,1.8044e-05,1.575e-05,1.7194e-05,1.5608e-05,1.1206e-05
398,1.6882e-06,3.978e-06,1.1892e-05,4.882e-06,1.1642e-05,5.158e-06,1.4784e-06,2.592e-06,6.262e-06,5.604e-07,1.7778e-06,1.018e-05,1.0568e-05,1.2326e-05,7.932e-06,1.1916e-05,9.714e-06,9.352e-06,1.132e-05,4.49e-06,4.948e-06,4.012e-06,2.458e-06,3.952e-06,4.188e-06,4.202e-06,4.828e-06,4.272e-06,2.94e-06,5.19e-06,1.118e-05,1.6546e-05,1.7924e-05,1.8544e-05,1.3224e-05,1.3856e-05,1.3222e-05,1.9136e-05,1.652e-05,2.23e-05
400,1.4632e-06,7.884e-06,1.2148e-05,5.122e-06,1.152e-05,2.616e-06,4.71e-06,3.77e-06,7.478e-06,7.446e-07,4.354e-06,1.2438e-05,1.2786e-05,1.2396e-05,8.87e-06,1.3112e-05,7.906e-06,4.962e-06,8.194e-06,8.6e-06,4.91e-06,5.378e-06,1.6292e-06,3.838e-06,2.946e-06,3.098e-06,4.148e-06,5.01e-06,3.192e-06,3.634e-06,8.912e-06,1.5924e-05,1.6492e-05,1.6418e-05,1.3156e-05,1.3374e-05,1.5564e-05,1.6284e-05,1.6778e-05,1.8156e-05
402,5.92e-07,8.214e-06,1.173e-05,4.534e-06,1.0006e-05,1.2098e-06,3.224e-06,1.8236e-06,6.344e-06,5.014e-06,4.02e-06,8.958e-06,1.1006e-05,1.3164e-05,8.566e-06,1.1544e-05,8.318e-06,3.264e-06,7.152e-06,4.828e-06,5.35e-06,5.11e-06,1.3528e-06,3.818e-06,3.368e-06,3.044e-06,3.704e-06,4.582e-06,3.044e-06,3.138e-06,1.3634e-05,1.4298e-05,1.3532e-05,1.3992e-05,1.4044e-05,1.462e-05,1.5592e-05,1.3028e-05,1.3432e-05,1.2552e-05
404,2.162e-06,8.504e-06,1.1394e-05,3.558e-06,8.956e-06,3.666e-06,6.108e-06,3.16e-06,6.624e-06,5.034e-06,2.57e-06,7.584e-06,9.054e-06,1.3564e-05,8.818e-06,9.778e-06,9.212e-06,4.532e-06,7.86e-06,6.756e-06,4.876e-06,4.956e-06,1.3048e-06,4.266e-06,3.444e-06,2.482e-06,3.872e-06,4.238e-06,1.9492e-06,3.326e-06,1.3212e-05,1.39e-05,1.2632e-05,1.2728e-05,1.3066e-05,1.259e-05,1.2924e-05,1.119e-05,1.4024e-05,1.284e-05
406,1.3036e-06,6.824e-06,9.958e-06,6.096e-06,8.224e-06,5.984e-06,7.61e-06,5.92e-06,9.014e-06,3.95e-06,4.194e-06,9.616e-06,8.474e-06,1.2106e-05,9.8e-06,1.2508e-05,8.842e-06,5.646e-06,7.224e-06,7.35e-06,4.868e-06,4.178e-06,1.081e-06,3.772e-06,2.412e-06,1.528e-06,3.256e-06,3.348e-06,2.692e-06,3.798e-06,1.1528e-05,1.4084e-05,1.0962e-05,1.6346e-05,1.3326e-05,1.2514e-05,1.08e-05,1.378e-05,1.229e-05,1.629e-05
408,1.4168e-06,5.812e-06,7.224e-06,8.086e-06,1.0834e-05,6.034e-06,6.928e-06,3.914e-06,9.604e-06,4.588e-06,5.782e-06,8.782e-06,8.928e-06,1.2676e-05,4.968e-06,1.2808e-05,7.674e-06,7.062e-06,8.956e-06,5.226e-06,4.302e-06,3.4e-06,1.1326e-06,3.302e-06,3.198e-06,2.708e-06,3.79e-06,3.2e-06,3.342e-06,3.31e-06,1.101e-05,1.3026e-05,7.514e-06,1.249e-05,1.1646e-05,1e-05,1.726e-05,1.3572e-05,1.5164e-05,1.66e-05
410,1.6786e-06,2.824e-06,7.742e-06,5.8e-06,9.01e-06,4.834e-06,7.912e-06,3.25e-06,1.0544e-05,3.808e-06,7.146e-06,8.354e-06,9.426e-06,1.1936e-05,5.812e-06,1.064e-05,9.564e-06,4.996e-06,8.41e-06,5.068e-06,4.538e-06,2.996e-06,1.5936e-06,3.956e-06,3.438e-06,2.382e-06,4.93e-06,3.438e-06,3.206e-06,2.478e-06,1.0182e-05,1.5784e-05,1.1682e-05,1.2934e-05,1.3588e-05,1.3208e-05,1.5596e-05,1.4404e-05,1.3574e-05,1.1618e-05
412,1.0424e-06,5.162e-06,7.392e-06,1.1726e-05,8.114e-06,6.444e-06,1.0796e-05,3.99e-06,1.0644e-05,8.172e-06,5.532e-06,1.1432e-05,1.2932e-05,1.3042e-05,8.886e-06,8.274e-06,1.0684e-05,5.396e-06,7.902e-06,5.222e-06,4.492e-06,3.804e-06,2.12e-06,2.896e-06,2.86e-06,2.1e-06,3.524e-06,3.38e-06,2.59e-06,2.178e-06,1.2602e-05,1.516e-05,1.1594e-05,1.6082e-05,1.783e-05,1.327e-05,1.792e-05,1.4268e-05,1.569e-05,1.452e-05
414,8.208e-06,7.954e-06,1.058e-05,1.456e-05,9.302e-06,1.1034e-05,1.1564e-05,8.286e-06,1.2706e-05,1.4522e-05,7.602e-06,1.3196e-05,1.1418e-05,1.2984e-05,1.0114e-05,1.011e-05,1.0944e-05,6.364e-06,1.06e-05,8.746e-06,5.188e-06,4.224e-06,2.586e-06,3.6e-06,3.442e-06,2.422e-06,3.786e-06,3.942e-06,3.864e-06,2.5e-06,2e-05,2.228e-05,1.487e-05,1.801e-05,2.23e-05,2.008e-05,2.25e-05,1.7946e-05,1.7866e-05,1.901e-05
416,2.142e-05,2.43e-05,2.398e-05,2.508e-05,2.402e-05,2.326e-05,2.65e-05,2.074e-05,2.638e-05,2.444e-05,1.1002e-05,1.6244e-05,1.5234e-05,1.682e-05,1.3118e-05,1.3602e-05,1.5364e-05,1.0562e-05,1.2002e-05,1.2226e-05,4.94e-06,4.866e-06,2.786e-06,4.42e-06,4.308e-06,2.79e-06,3.644e-06,4.034e-06,3.8e-06,3.18e-06,3.698e-05,4.02e-05,3.138e-05,3.72e-05,3.794e-05,3.628e-05,3.592e-05,3.398e-05,3.542e-05,3.696e-05
418,5.476e-05,5.796e-05,5.738e-05,5.998e-05,5.76e-05,5.316e-05,5.596e-05,5.094e-05,5.632e-05,5.52e-05,1.924e-05,2.482e-05,2.286e-05,2.464e-05,2.146e-05,2.224e-05,2.288e-05,1.7644e-05,1.967e-05,1.7828e-05,6.192e-06,5.874e-06,4.072e-06,5.764e-06,5.084e-06,4.926e-06,5.358e-06,4.982e-06,5.488e-06,3.518e-06,8.134e-05,8.662e-05,7.542e-05,7.936e-05,8.048e-05,7.384e-05,7.898e-05,7.554e-05,7.702e-05,7.86e-05
420,0.00011232,0.00011554,0.00011388,0.00011734,0.0001145,0.00010668,0.00010896,0.00010754,0.00010872,0.0001077,3.212e-05,3.954e-05,3.592e-05,3.774e-05,3.532e-05,3.638e-05,3.418e-05,2.976e-05,3.3e-05,3.114e-05,8.788e-06,8.094e-06,6.284e-06,8.022e-06,7.61e-06,6.93e-06,7.806e-06,8.006e-06,7.914e-06,5.794e-06,0.00015706,0.00016062,0.00015206,0.00015364,0.00015742,0.0001441,0.00014944,0.00014882,0.00014882,0.00014778
422,0.0001829,0.00018688,0.00018242,0.00018678,0.0001852,0.00017792,0.00017902,0.00017708,0.00017836,0.00017802,5.082e-05,5.482e-05,5.41e-05,5.356e-05,5.372e-05,5.242e-05,5.206e-05,4.882e-05,4.98e-05,5.044e-05,1.1384e-05,1.1094e-05,9.35e-06,1.0528e-05,1.1182e-05,9.668e-06,1.0292e-05,1.0802e-05,1.0156e-05,8.718e-06,0.000264,0.0002662,0.0002578,0.0002594,0.0002618,0.0002476,0.0002488,0.0002484,0.00025,0.0002476
424,0.0002548,0.0002548,0.0002526,0.0002562,0.0002562,0.0002488,0.0002526,0.0002478,0.0002496,0.0002464,6.892e-05,7.174e-05,7.118e-05,7.108e-05,6.896e-05,6.932e-05,7.078e-05,6.72e-05,6.804e-05,6.846e-05,1.5152e-05,1.5348e-05,1.3502e-05,1.3994e-05,1.4332e-05,1.3776e-05,1.4216e-05,1.4372e-05,1.3708e-05,1.2912e-05,0.0003984,0.0003964,0.000393,0.0003924,0.000397,0.0003782,0.0003822,0.0003798,0.0003782,0.0003784
426,0.0003216,0.000321,0.000317,0.0003202,0.000321,0.0003146,0.0003154,0.000314,0.0003156,0.0003158,8.44e-05,9.074e-05,8.91e-05,8.894e-05,8.706e-05,8.64e-05,8.566e-05,8.296e-05,8.46e-05,8.582e-05,2.014e-05,2.056e-05,1.8252e-05,1.962e-05,1.933e-05,1.8882e-05,1.8972e-05,1.9284e-05,1.9458e-05,1.853e-05,0.000571,0.00057,0.0005636,0.0005654,0.0005686,0.0005496,0.0005494,0.0005472,0.0005502,0.0005476
428,0.0003796,0.0003776,0.0003726,0.0003806,0.0003782,0.0003702,0.0003734,0.0003706,0.0003714,0.0003726,9.858e-05,0.00010242,0.00010404,0.0001019,0.00010338,0.00010192,0.00010174,9.95e-05,0.00010076,9.91e-05,2.558e-05,2.558e-05,2.444e-05,2.506e-05,2.56e-05,2.416e-05,2.53e-05,2.472e-05,2.556e-05,2.338e-05,0.0007628,0.0007672,0.0007594,0.0007584,0.0007638,0.0007396,0.0007434,0.0007412,0.0007408,0.000742
430,0.0004238,0.000424,0.0004188,0.0004242,0.000422,0.0004184,0.000418,0.0004184,0.0004168,0.00042,0.00011334,0.00011676,0.0001155,0.00011528,0.00011342,0.0001136,0.00011392,0.00011258,0.0001116,0.00011046,3.052e-05,3.124e-05,3.046e-05,3.058e-05,3.122e-05,2.998e-05,3.062e-05,3.05e-05,3.09e-05,2.882e-05,0.0009368,0.0009382,0.000932,0.0009296,0.0009372,0.0009132,0.0009186,0.0009158,0.000917,0.0009166
432,0.000449,0.000447,0.000441,0.0004468,0.000445,0.0004444,0.0004452,0.000446,0.0004428,0.0004464,0.00012012,0.00012288,0.00012306,0.00012044,0.00012054,0.00012092,0.00012202,0.000119,0.00011962,0.00011802,3.526e-05,3.564e-05,3.518e-05,3.53e-05,3.566e-05,3.496e-05,3.504e-05,3.538e-05,3.604e-05,3.43e-05,0.001058,0.0010568,0.001052,0.0010482,0.0010564,0.0010418,0.001044,0.0010404,0.0010398,0.0010434
434,0.0004316,0.0004298,0.000423,0.0004304,0.0004272,0.0004328,0.0004344,0.000434,0.0004314,0.0004328,0.00011824,0.00011798,0.0001191,0.00011772,0.00011816,0.00011932,0.00012074,0.00011878,0.00011942,0.0001173,3.802e-05,3.814e-05,3.796e-05,3.78e-05,3.834e-05,3.836e-05,3.842e-05,3.848e-05,3.92e-05,3.77e-05,0.0011002,0.0011002,0.0010964,0.0010926,0.0010998,0.0010944,0.001097,0.0010926,0.0010934,0.0010924
436,0.0003618,0.000359,0.0003532,0.0003598,0.0003576,0.0003684,0.000369,0.0003686,0.0003684,0.0003676,0.00010148,0.00010018,0.00010266,0.00010144,0.00010388,0.00010292,0.00010596,0.00010496,0.00010414,0.00010344,3.862e-05,3.856e-05,3.878e-05,3.866e-05,3.936e-05,3.952e-05,3.952e-05,3.92e-05,3.988e-05,3.83e-05,0.0010622,0.0010626,0.0010596,0.001054,0.0010634,0.0010642,0.001067,0.001064,0.0010656,0.0010616
438,0.0002564,0.000254,0.0002478,0.0002534,0.0002524,0.0002666,0.0002648,0.0002652,0.000263,0.0002626,7.606e-05,7.626e-05,7.65e-05,7.616e-05,7.836e-05,7.856e-05,8.108e-05,7.97e-05,7.858e-05,7.962e-05,3.802e-05,3.748e-05,3.798e-05,3.786e-05,3.87e-05,3.856e-05,3.808e-05,3.914e-05,3.93e-05,3.776e-05,0.0009616,0.0009602,0.0009568,0.0009558,0.000962,0.0009708,0.000972,0.0009712,0.0009706,0.0009658
440,0.00014956,0.00014958,0.00014034,0.00014578,0.00014406,0.00015664,0.00015638,0.00015872,0.00015548,0.00015432,5.308e-05,5.246e-05,5.272e-05,5.296e-05,5.49e-05,5.378e-05,5.712e-05,5.54e-05,5.454e-05,5.348e-05,3.62e-05,3.62e-05,3.666e-05,3.602e-05,3.632e-05,3.722e-05,3.65e-05,3.722e-05,3.736e-05,3.616e-05,0.0008108,0.0008098,0.0008062,0.000803,0.0008106,0.0008224,0.0008226,0.0008214,0.0008224,0.0008196
442,8.138e-05,8.002e-05,7.546e-05,7.898e-05,7.79e-05,8.372e-05,8.262e-05,8.384e-05,8.222e-05,8.41e-05,3.812e-05,4.136e-05,4.036e-05,3.93e-05,3.802e-05,3.984e-05,4.098e-05,4.212e-05,4.03e-05,4.028e-05,3.396e-05,3.394e-05,3.39e-05,3.39e-05,3.414e-05,3.508e-05,3.47e-05,3.51e-05,3.524e-05,3.362e-05,0.0006114,0.0006086,0.0006072,0.000605,0.000611,0.0006262,0.0006268,0.000625,0.0006252,0.0006212
444,6.242e-05,5.984e-05,5.432e-05,5.886e-05,5.664e-05,6.006e-05,5.968e-05,6.408e-05,5.894e-05,6.05e-05,3.482e-05,3.57e-05,3.598e-05,3.608e-05,3.932e-05,3.602e-05,3.726e-05,4.012e-05,3.642e-05,3.76e-05,3.176e-05,3.202e-05,3.262e-05,3.21e-05,3.22e-05,3.302e-05,3.342e-05,3.34e-05,3.396e-05,3.214e-05,0.0004204,0.0004184,0.000416,0.0004154,0.0004186,0.0004358,0.0004368,0.0004336,0.0004318,0.0004306
446,6.026e-05,5.644e-05,5.152e-05,5.558e-05,5.468e-05,5.794e-05,5.576e-05,5.918e-05,5.544e-05,5.382e-05,3.634e-05,3.61e-05,3.702e-05,3.7e-05,3.89e-05,3.64e-05,3.754e-05,3.972e-05,3.638e-05,3.818e-05,3.094e-05,3.098e-05,3.196e-05,3.124e-05,3.142e-05,3.224e-05,3.204e-05,3.232e-05,3.282e-05,3.132e-05,0.0002586,0.000257,0.000256,0.0002522,0.000258,0.0002694,0.00027,0.0002672,0.0002666,0.000266
448,6.326e-05,5.886e-05,5.594e-05,5.88e-05,5.896e-05,6.04e-05,5.754e-05,6.194e-05,5.758e-05,5.61e-05,3.97e-05,4.022e-05,4.02e-05,4.018e-05,4.036e-05,3.904e-05,4.026e-05,4.194e-05,3.9e-05,3.984e-05,3.212e-05,3.19e-05,3.316e-05,3.288e-05,3.24e-05,3.34e-05,3.298e-05,3.314e-05,3.368e-05,3.25e-05,0.00015964,0.00015662,0.00015768,0.0001543,0.00016006,0.0001645,0.0001654,0.00016476,0.00016346,0.00016224
450,6.88e-05,6.396e-05,6e-05,6.306e-05,6.458e-05,6.39e-05,6.042e-05,6.664e-05,6.212e-05,6.168e-05,4.388e-05,4.312e-05,4.324e-05,4.334e-05,4.364e-05,4.25e-05,4.382e-05,4.602e-05,4.3e-05,4.29e-05,3.524e-05,3.5e-05,3.622e-05,3.626e-05,3.58e-05,3.654e-05,3.588e-05,3.614e-05,3.71e-05,3.524e-05,0.00012414,0.00012136,0.00012014,0.00011912,0.00012364,0.0001256,0.00012296,0.000123,0.00012326,0.00012302
452,6.938e-05,6.738e-05,6.328e-05,6.416e-05,6.668e-05,6.672e-05,6.46e-05,6.784e-05,6.462e-05,6.524e-05,4.422e-05,4.25e-05,4.506e-05,4.56e-05,4.702e-05,4.492e-05,4.618e-05,4.83e-05,4.432e-05,4.516e-05,3.766e-05,3.788e-05,3.894e-05,3.92e-05,3.836e-05,3.926e-05,3.86e-05,3.88e-05,3.898e-05,3.766e-05,0.00011622,0.00011426,0.00011392,0.00011414,0.0001149,0.0001156,0.00011452,0.00011386,0.00011448,0.0001139
454,6.928e-05,6.844e-05,6.34e-05,6.49e-05,6.544e-05,6.588e-05,6.448e-05,6.662e-05,6.472e-05,6.48e-05,4.568e-05,4.438e-05,4.596e-05,4.652e-05,4.886e-05,4.512e-05,4.644e-05,4.878e-05,4.424e-05,4.628e-05,3.866e-05,3.922e-05,4.036e-05,3.944e-05,3.972e-05,4.016e-05,4.044e-05,3.974e-05,3.984e-05,3.94e-05,0.00011354,0.00010788,0.00010912,0.000112,0.0001108,0.0001114,0.00011068,0.00011112,0.00011204,0.00010976
456,6.968e-05,6.838e-05,6.252e-05,6.422e-05,6.45e-05,6.36e-05,6.178e-05,6.698e-05,6.33e-05,6.498e-05,4.682e-05,4.274e-05,4.646e-05,4.676e-05,4.956e-05,4.592e-05,4.632e-05,4.994e-05,4.656e-05,4.672e-05,3.972e-05,4.028e-05,4.18e-05,4.136e-05,4.138e-05,4.196e-05,4.136e-05,4.138e-05,4.218e-05,4.086e-05,0.00011228,0.0001082,0.00010858,0.00011178,0.00010714,0.000111,0.00010808,0.00010828,0.0001083,0.00010666
458,7.156e-05,7.208e-05,6.566e-05,6.598e-05,6.708e-05,6.732e-05,6.56e-05,7.154e-05,6.722e-05,6.558e-05,5.052e-05,4.608e-05,4.88e-05,4.948e-05,5.03e-05,4.76e-05,4.804e-05,5.282e-05,4.962e-05,4.902e-05,4.236e-05,4.286e-05,4.48e-05,4.368e-05,4.348e-05,4.466e-05,4.472e-05,4.428e-05,4.482e-05,4.428e-05,0.00011218,0.00011026,0.00010996,0.00011232,0.00011078,0.00011446,0.00011136,0.00010902,0.0001121,0.00011034
460,7.362e-05,7.212e-05,6.762e-05,6.846e-05,7.132e-05,7.124e-05,6.822e-05,7.198e-05,6.984e-05,6.706e-05,5.286e-05,4.852e-05,5.016e-05,5.206e-05,5.242e-05,4.986e-05,5.124e-05,5.518e-05,5.074e-05,5.236e-05,4.612e-05,4.584e-05,4.794e-05,4.65e-05,4.686e-05,4.77e-05,4.726e-05,4.72e-05,4.754e-05,4.73e-05,0.00011684,0.00011124,0.00011466,0.0001125,0.00011326,0.00011604,0.00011328,0.00011068,0.00011494,0.00011244
462,7.55e-05,7.482e-05,7.07e-05,7.218e-05,7.266e-05,7.312e-05,7.04e-05,7.388e-05,7.252e-05,7.088e-05,5.442e-05,5.012e-05,5.176e-05,5.396e-05,5.428e-05,5.358e-05,5.328e-05,5.652e-05,5.316e-05,5.518e-05,4.894e-05,4.928e-05,5.092e-05,4.918e-05,4.994e-05,5.088e-05,5.03e-05,5.024e-05,5.038e-05,5.048e-05,0.00011714,0.00011376,0.00011662,0.00011578,0.00011358,0.00011926,0.00011484,0.0001116,0.00011794,0.00011418
464,7.868e-05,7.754e-05,7.662e-05,7.536e-05,7.558e-05,7.606e-05,7.722e-05,7.634e-05,7.678e-05,7.416e-05,5.516e-05,5.2e-05,5.368e-05,5.596e-05,5.66e-05,5.584e-05,5.41e-05,5.906e-05,5.546e-05,5.606e-05,5.236e-05,5.25e-05,5.442e-05,5.282e-05,5.346e-05,5.414e-05,5.37e-05,5.354e-05,5.362e-05,5.358e-05,0.00011842,0.00011392,0.00012078,0.00011962,0.00011682,0.00012012,0.00011784,0.00011516,0.00012108,0.00011672
466,8.264e-05,8.268e-05,8.064e-05,8.03e-05,7.896e-05,8e-05,7.998e-05,7.938e-05,8.144e-05,7.796e-05,6.058e-05,5.664e-05,5.528e-05,5.942e-05,5.854e-05,5.732e-05,5.79e-05,6.16e-05,5.768e-05,5.906e-05,5.688e-05,5.7e-05,5.946e-05,5.732e-05,5.786e-05,5.808e-05,5.846e-05,5.782e-05,5.79e-05,5.866e-05,0.00012258,0.00011968,0.0001244,0.00012408,0.00012092,0.00012498,0.00012428,0.00012062,0.00012448,0.00012188
468,8.858e-05,8.94e-05,8.686e-05,8.528e-05,8.748e-05,8.51e-05,8.728e-05,8.784e-05,8.888e-05,8.392e-05,6.18e-05,5.75e-05,6.104e-05,6.19e-05,6.184e-05,6.182e-05,6.034e-05,6.386e-05,6.252e-05,6.146e-05,6.21e-05,6.324e-05,6.526e-05,6.384e-05,6.434e-05,6.436e-05,6.386e-05,6.406e-05,6.386e-05,6.436e-05,0.00013088,0.00012362,0.00013128,0.00013092,0.00012524,0.00013142,0.00013284,0.00012926,0.0001339,0.00013056
470,8.848e-05,8.856e-05,8.95e-05,8.822e-05,8.71e-05,8.71e-05,8.732e-05,8.816e-05,8.818e-05,8.496e-05,6.2e-05,5.956e-05,5.934e-05,6.172e-05,6.074e-05,6.032e-05,6.258e-05,6.404e-05,6.196e-05,5.93e-05,6.486e-05,6.452e-05,6.746e-05,6.602e-05,6.646e-05,6.654e-05,6.606e-05,6.61e-05,6.632e-05,6.558e-05,0.00012858,0.00012624,0.0001326,0.00012854,0.00012528,0.00013002,0.00013132,0.00012938,0.00013316,0.0001316
472,8.718e-05,8.758e-05,8.818e-05,8.704e-05,8.582e-05,8.462e-05,8.522e-05,8.466e-05,8.758e-05,8.342e-05,6.048e-05,5.576e-05,5.608e-05,6.028e-05,5.932e-05,5.86e-05,5.856e-05,6.086e-05,5.974e-05,5.7e-05,6.494e-05,6.522e-05,6.774e-05,6.648e-05,6.666e-05,6.654e-05,6.636e-05,6.644e-05,6.642e-05,6.684e-05,0.00012672,0.00012254,0.0001291,0.00012718,0.0001233,0.00012722,0.00012906,0.00012654,0.00013044,0.00013028
474,8.484e-05,8.516e-05,8.672e-05,8.41e-05,8.384e-05,8.408e-05,8.374e-05,8.512e-05,8.586e-05,8.154e-05,5.884e-05,5.27e-05,5.506e-05,5.758e-05,5.786e-05,5.624e-05,5.632e-05,5.896e-05,5.7e-05,5.41e-05,6.572e-05,6.618e-05,6.818e-05,6.638e-05,6.712e-05,6.672e-05,6.662e-05,6.688e-05,6.624e-05,6.752e-05,0.00012332,0.00011992,0.00012612,0.00012604,0.00012236,0.00012652,0.00012386,0.00012204,0.000127,0.0001264
476,7.97e-05,8.264e-05,8.388e-05,8.06e-05,8.1e-05,7.898e-05,8.126e-05,7.948e-05,8.464e-05,7.83e-05,5.61e-05,4.902e-05,5.228e-05,5.306e-05,5.498e-05,5.274e-05,5.298e-05,5.472e-05,5.352e-05,5.236e-05,6.424e-05,6.448e-05,6.64e-05,6.506e-05,6.562e-05,6.532e-05,6.454e-05,6.504e-05,6.486e-05,6.538e-05,0.00011512,0.00011326,0.00011802,0.00011908,0.00011264,0.00011852,0.00011838,0.00011554,0.0001199,0.00011952
478,7.808e-05,8.278e-05,8.118e-05,7.856e-05,7.964e-05,7.772e-05,7.948e-05,8.08e-05,8.104e-05,7.668e-05,5.378e-05,4.756e-05,5.032e-05,5.148e-05,5.408e-05,5.05e-05,5.062e-05,5.21e-05,5.15e-05,5.084e-05,6.378e-05,6.388e-05,6.608e-05,6.48e-05,6.532e-05,6.49e-05,6.482e-05,6.474e-05,6.448e-05,6.56e-05,0.00011124,0.00010948,0.00011478,0.00011496,0.00010692,0.00011368,0.00011326,0.00011146,0.00011648,0.00011602
480,7.882e-05,8.45e-05,8.38e-05,8.084e-05,8.186e-05,7.91e-05,8.182e-05,8.356e-05,8.314e-05,7.926e-05,5.48e-05,4.916e-05,5.196e-05,5.324e-05,5.246e-05,5.124e-05,5.218e-05,5.18e-05,5.25e-05,5.026e-05,6.766e-05,6.894e-05,6.952e-05,6.918e-05,6.896e-05,6.896e-05,6.952e-05,6.942e-05,6.822e-05,6.932e-05,0.00011154,0.0001107,0.00011758,0.0001145,0.00011054,0.00011458,0.00011386,0.00011268,0.0001187,0.00011772
482,8.242e-05,8.618e-05,8.766e-05,8.576e-05,8.646e-05,8.32e-05,8.808e-05,8.494e-05,8.818e-05,8.438e-05,5.854e-05,5.218e-05,5.714e-05,5.512e-05,5.508e-05,5.438e-05,5.482e-05,5.556e-05,5.616e-05,5.356e-05,7.406e-05,7.474e-05,7.578e-05,7.45e-05,7.5e-05,7.494e-05,7.482e-05,7.514e-05,7.474e-05,7.532e-05,0.00011632,0.000117,0.00011904,0.00012016,0.00011556,0.00011778,0.00011756,0.00011984,0.00012228,0.00012288
484,8.416e-05,8.72e-05,8.752e-05,8.618e-05,8.588e-05,8.468e-05,8.644e-05,8.64e-05,8.8e-05,8.5e-05,6.152e-05,5.716e-05,6.016e-05,5.982e-05,5.986e-05,5.884e-05,5.93e-05,5.808e-05,6.05e-05,5.878e-05,7.76e-05,7.828e-05,7.89e-05,7.764e-05,7.86e-05,7.85e-05,7.82e-05,7.872e-05,7.778e-05,7.85e-05,0.00011774,0.00011738,0.00011798,0.00012002,0.00011476,0.00011884,0.0001209,0.0001184,0.00012068,0.00012772
486,8.214e-05,8.668e-05,8.62e-05,8.482e-05,8.648e-05,8.324e-05,8.61e-05,8.536e-05,8.826e-05,8.438e-05,7.394e-05,6.856e-05,7.12e-05,7.09e-05,7.042e-05,6.816e-05,6.842e-05,6.772e-05,6.95e-05,6.914e-05,8.236e-05,8.302e-05,8.298e-05,8.206e-05,8.308e-05,8.214e-05,8.224e-05,8.228e-05,8.172e-05,8.238e-05,0.00011474,0.00011694,0.00011658,0.0001191,0.00011158,0.000116,0.0001166,0.00011648,0.00011706,0.00012452
488,8.226e-05,8.616e-05,8.806e-05,8.636e-05,8.484e-05,8.318e-05,8.688e-05,8.696e-05,8.708e-05,8.516e-05,0.00011684,0.0001127,0.00011424,0.0001141,0.00011408,0.00010648,0.000107,0.00010474,0.00010786,0.00010528,0.00010172,0.00010214,0.00010208,0.0001017,0.0001022,9.83e-05,9.836e-05,9.814e-05,9.78e-05,9.888e-05,0.00011706,0.0001181,0.00011898,0.00012244,0.00011572,0.00011782,0.00011882,0.00012004,0.00012008,0.00012578
490,8.626e-05,9.19e-05,9.034e-05,8.962e-05,8.804e-05,8.834e-05,9.032e-05,9.05e-05,9.206e-05,8.778e-05,0.0002722,0.0002676,0.0002696,0.0002686,0.0002696,0.0002434,0.000245,0.0002418,0.0002448,0.0002436,0.00017334,0.00017354,0.00017266,0.00017316,0.00017296,0.00016054,0.00016114,0.0001613,0.00016052,0.00016208,0.00013102,0.00013216,0.00013414,0.00013684,0.00013096,0.00013092,0.000133,0.00013266,0.00013352,0.00013862
492,9.232e-05,9.828e-05,9.77e-05,9.392e-05,9.71e-05,9.532e-05,9.752e-05,9.578e-05,9.788e-05,9.694e-05,0.0006472,0.0006446,0.0006474,0.000642,0.0006446,0.000587,0.0005908,0.0005866,0.000588,0.0005908,0.0003522,0.0003516,0.000351,0.0003516,0.0003512,0.0003236,0.0003248,0.000324,0.000324,0.0003248,0.00016308,0.00016432,0.00016444,0.00016762,0.0001629,0.00016176,0.00016198,0.0001633,0.0001631,0.00017266
494,9.632e-05,9.92e-05,0.00010198,0.00010118,9.908e-05,0.00010112,0.00010162,9.986e-05,0.00010166,0.00010032,0.0013,0.0012954,0.0012988,0.0012876,0.001298,0.0012106,0.0012134,0.0012108,0.0012074,0.0012208,0.000664,0.0006628,0.0006616,0.0006626,0.0006614,0.000621,0.0006234,0.0006218,0.0006208,0.000622,0.0002102,0.0002124,0.0002112,0.000214,0.0002076,0.0002028,0.0002056,0.0002062,0.000206,0.0002122
496,0.00010106,0.0001074,0.00010472,0.0001056,0.00010594,0.00010646,0.00010672,0.0001028,0.00010646,0.00010554,0.0019902,0.0019874,0.001988,0.0019676,0.0019856,0.0018832,0.001888,0.0018824,0.0018814,0.0019042,0.0009706,0.0009688,0.000968,0.0009684,0.0009672,0.0009266,0.0009292,0.0009276,0.000927,0.0009276,0.0002518,0.0002534,0.0002504,0.0002544,0.0002508,0.0002438,0.0002472,0.0002484,0.0002464,0.000254
498,0.00011714,0.00012284,0.00012278,0.00011982,0.00012016,0.00011828,0.00012118,0.00011678,0.00011904,0.00011914,0.002646,0.002648,0.002644,0.002614,0.002646,0.00253,0.002536,0.00253,0.002532,0.002568,0.0012066,0.0012044,0.0012044,0.0012038,0.001203,0.0011708,0.0011738,0.0011726,0.0011722,0.0011718,0.0002812,0.0002842,0.0002826,0.0002836,0.0002796,0.0002782,0.0002786,0.0002822,0.0002804,0.0002858
500,0.00014518,0.00014886,0.00014992,0.00014854,0.00014802,0.00014532,0.00014796,0.00014072,0.00014566,0.00014574,0.003248,0.00325,0.003244,0.003202,0.003252,0.003124,0.003132,0.003126,0.003126,0.003178,0.0013566,0.0013546,0.0013542,0.0013538,0.0013532,0.0013308,0.0013336,0.0013324,0.0013324,0.0013326,0.000299,0.0003032,0.0003008,0.0003014,0.0002988,0.000299,0.0003014,0.0003018,0.0003002,0.0003058
502,0.00017738,0.00018254,0.00018238,0.00018096,0.00018126,0.00017928,0.00018124,0.00017772,0.00017802,0.00017924,0.00376,0.003762,0.003756,0.003702,0.003764,0.003636,0.003642,0.003638,0.003638,0.003702,0.0014412,0.0014388,0.0014382,0.001438,0.0014374,0.0014214,0.0014248,0.001424,0.001424,0.0014236,0.000312,0.000315,0.0003102,0.0003128,0.0003128,0.0003126,0.0003142,0.0003136,0.0003114,0.0003182
504,0.0002022,0.0002054,0.0002068,0.0002044,0.000204,0.0002048,0.0002076,0.0002028,0.000204,0.0002058,0.004122,0.004128,0.00412,0.004064,0.004126,0.004016,0.004022,0.004018,0.004016,0.00408,0.0014838,0.0014818,0.0014806,0.0014806,0.0014796,0.0014688,0.0014718,0.0014698,0.0014706,0.0014694,0.0003172,0.0003202,0.0003172,0.0003178,0.0003178,0.000316,0.0003206,0.0003216,0.0003168,0.000326
506,0.0002154,0.0002172,0.0002186,0.0002168,0.0002188,0.00022,0.000221,0.0002156,0.000219,0.0002188,0.004228,0.004232,0.004232,0.0042,0.004228,0.004182,0.004186,0.004178,0.004178,0.004212,0.0014698,0.001468,0.0014666,0.0014666,0.0014656,0.001464,0.0014654,0.0014636,0.0014638,0.0014634,0.0003118,0.0003134,0.0003118,0.0003148,0.0003126,0.000311,0.0003144,0.000317,0.0003122,0.0003198
508,0.0002228,0.0002246,0.000222,0.000222,0.0002248,0.0002246,0.0002254,0.000223,0.0002222,0.0002264,0.003984,0.003982,0.00399,0.003998,0.003978,0.004022,0.004022,0.004014,0.004014,0.004004,0.0013306,0.001329,0.0013282,0.0013284,0.001328,0.0013448,0.0013462,0.0013446,0.0013448,0.001343,0.0002856,0.0002882,0.0002872,0.0002894,0.0002888,0.0002904,0.0002936,0.000295,0.000291,0.0002968
510,0.0002256,0.000227,0.0002262,0.000223,0.0002272,0.0002288,0.0002296,0.0002256,0.0002252,0.0002268,0.003418,0.003416,0.003432,0.003472,0.003408,0.003532,0.003528,0.003524,0.003526,0.003468,0.0010414,0.0010396,0.0010396,0.0010394,0.0010392,0.001077,0.001078,0.0010776,0.0010784,0.0010764,0.0002426,0.0002478,0.0002448,0.000246,0.000246,0.0002502,0.000253,0.000254,0.0002498,0.000257
512,0.0002208,0.0002218,0.0002216,0.00022,0.000224,0.000225,0.0002274,0.0002214,0.000224,0.0002256,0.002702,0.002696,0.002714,0.002758,0.00269,0.002834,0.00283,0.002828,0.002832,0.002764,0.0006762,0.0006748,0.0006752,0.0006746,0.000675,0.0007182,0.000719,0.0007194,0.0007204,0.0007188,0.0002028,0.000207,0.000202,0.000203,0.0002044,0.000205,0.0002104,0.0002112,0.000206,0.0002128
514,0.0002058,0.0002066,0.000207,0.0002048,0.0002088,0.0002112,0.0002136,0.000209,0.0002104,0.0002138,0.002,0.0019984,0.00201,0.002038,0.0019938,0.002112,0.00211,0.002108,0.00211,0.002066,0.0003848,0.0003842,0.0003838,0.0003838,0.000384,0.000413,0.0004144,0.0004146,0.0004148,0.0004136,0.0001778,0.000181,0.00017686,0.00017854,0.0001789,0.00017748,0.00018448,0.00018354,0.00017956,0.00018398
516,0.0001803,0.00017988,0.00018122,0.0001793,0.0001821,0.00018632,0.00018752,0.00018376,0.00018536,0.00018718,0.001392,0.001393,0.0013996,0.001413,0.0013886,0.0014762,0.0014748,0.0014728,0.0014762,0.0014486,0.0002412,0.000241,0.0002396,0.0002406,0.0002404,0.0002528,0.0002534,0.0002528,0.0002528,0.0002516,0.00016566,0.00017094,0.00016808,0.00017092,0.00017002,0.00016932,0.00017218,0.00017362,0.00016678,0.00017292
518,0.00015402,0.00015336,0.00015466,0.00015216,0.00015466,0.00015694,0.0001573,0.0001538,0.000157,0.00015822,0.0008634,0.000866,0.0008692,0.0008714,0.0008636,0.0009224,0.000921,0.0009188,0.0009206,0.0009074,0.00019536,0.0001949,0.00019374,0.00019456,0.00019424,0.0001981,0.00019898,0.00019838,0.00019816,0.00019762,0.00016576,0.0001705,0.00016522,0.00016842,0.0001684,0.00016532,0.00016864,0.00016846,0.00016286,0.00016996
520,0.00013834,0.00013922,0.00014152,0.00013748,0.00014118,0.00014324,0.00014222,0.00014044,0.00014194,0.00014276,0.0005284,0.000531,0.0005336,0.0005332,0.0005266,0.0005624,0.0005606,0.00056,0.0005586,0.000556,0.000184,0.00018378,0.00018228,0.00018356,0.00018276,0.00018508,0.00018582,0.00018518,0.00018476,0.00018404,0.00016438,0.00016686,0.00016392,0.00016456,0.00016728,0.00016332,0.00016748,0.00016698,0.00016308,0.00016788
522,0.0001373,0.00013506,0.00013618,0.00013418,0.0001372,0.00013922,0.00013854,0.00013604,0.0001369,0.00013702,0.0003848,0.0003896,0.0003896,0.000388,0.0003856,0.0004006,0.0004,0.0004,0.0003982,0.0003984,0.0001768,0.00017674,0.00017552,0.00017636,0.00017566,0.00017738,0.00017832,0.000178,0.00017798,0.0001769,0.00016124,0.00016576,0.00016376,0.00016432,0.00016496,0.000162,0.00016778,0.00016554,0.00016142,0.00016702
524,0.00013772,0.00013554,0.00013668,0.00013508,0.00013874,0.00013874,0.00013814,0.00013782,0.00013686,0.00013788,0.0003334,0.0003378,0.000337,0.000335,0.0003342,0.0003414,0.0003414,0.0003416,0.0003392,0.000341,0.00017018,0.00016962,0.00016896,0.00016966,0.0001688,0.00017074,0.00017108,0.00017116,0.00017122,0.00017012,0.0001579,0.00016218,0.00016022,0.00016204,0.00016286,0.00015798,0.00016384,0.00016042,0.0001583,0.0001611
526,0.00013882,0.00013768,0.00013898,0.00013798,0.00014002,0.00014018,0.00013924,0.00013906,0.00013946,0.00013928,0.00031,0.0003122,0.0003122,0.0003106,0.000311,0.0003154,0.0003156,0.0003148,0.0003122,0.000317,0.0001639,0.00016372,0.00016306,0.00016318,0.0001629,0.00016484,0.00016544,0.00016476,0.00016474,0.0001643,0.00015624,0.0001578,0.0001566,0.00015784,0.00015904,0.00015524,0.00016026,0.00015628,0.00015462,0.00015704
528,0.00014082,0.0001391,0.0001412,0.00014016,0.00014228,0.00014218,0.0001412,0.00014046,0.00014128,0.00014128,0.0002912,0.0002924,0.0002938,0.0002914,0.0002924,0.0002944,0.0002954,0.0002946,0.0002916,0.0002952,0.00015764,0.00015728,0.00015738,0.00015758,0.00015712,0.0001587,0.00015948,0.00015824,0.0001588,0.00015844,0.00015172,0.00015242,0.00015204,0.00015298,0.0001528,0.00015052,0.0001544,0.00015012,0.00015038,0.0001535
530,0.0001424,0.000142,0.00014292,0.00014094,0.00014402,0.0001426,0.00014122,0.00014134,0.00014312,0.00014206,0.0002714,0.0002738,0.0002722,0.000271,0.000271,0.0002726,0.0002724,0.0002732,0.0002712,0.0002722,0.00015202,0.00015172,0.0001521,0.00015182,0.00015156,0.00015218,0.00015392,0.0001527,0.0001531,0.00015212,0.00014312,0.00014328,0.00014268,0.00014438,0.0001436,0.00014548,0.00014616,0.00014402,0.00014232,0.00014412
532,0.00014534,0.0001436,0.00014372,0.00014332,0.00014582,0.0001436,0.00014292,0.00014188,0.00014396,0.00014282,0.000254,0.0002552,0.0002554,0.0002542,0.0002546,0.0002546,0.0002544,0.0002558,0.0002532,0.0002554,0.00014866,0.00014882,0.0001487,0.0001486,0.00014834,0.00014918,0.00014952,0.00014902,0.00014926,0.00014828,0.00013552,0.00013628,0.00013686,0.00013542,0.00013742,0.0001362,0.00013758,0.00013446,0.00013534,0.00013412
534,0.00014566,0.00014306,0.00014442,0.00014406,0.0001452,0.00014408,0.00014298,0.00014304,0.00014474,0.00014308,0.0002386,0.000241,0.0002402,0.0002386,0.000239,0.0002392,0.00024,0.0002416,0.0002378,0.00024,0.00014668,0.00014632,0.00014656,0.00014652,0.00014626,0.00014698,0.00014744,0.00014678,0.000147,0.00014628,0.00012988,0.00013154,0.00013102,0.00013218,0.00013194,0.00013136,0.00013414,0.00013,0.00012828,0.00012938
536,0.00014602,0.00014438,0.00014422,0.00014416,0.0001448,0.0001448,0.00014348,0.00014394,0.0001452,0.00014328,0.0002264,0.0002272,0.000226,0.0002266,0.0002258,0.0002268,0.0002274,0.000229,0.0002246,0.0002276,0.00014456,0.00014472,0.00014526,0.00014484,0.00014452,0.00014536,0.00014604,0.00014548,0.00014544,0.00014496,0.00012466,0.00012696,0.00012568,0.000128,0.0001266,0.00012654,0.00012856,0.00012512,0.00012424,0.0001243
538,0.00014536,0.00014282,0.0001449,0.00014472,0.00014392,0.0001444,0.00014372,0.00014422,0.0001455,0.00014404,0.0002168,0.000217,0.0002172,0.0002168,0.0002168,0.0002168,0.0002172,0.0002188,0.0002158,0.000217,0.00014382,0.00014394,0.00014448,0.00014448,0.00014368,0.00014476,0.00014566,0.00014514,0.00014518,0.00014506,0.00012198,0.0001244,0.00012278,0.00012174,0.00012368,0.00012406,0.00012688,0.00012208,0.00012268,0.00012132
540,0.0001446,0.00014196,0.00014264,0.00014214,0.00014274,0.0001436,0.00014214,0.00014354,0.00014602,0.00014254,0.0002092,0.0002094,0.0002096,0.0002106,0.00021,0.0002104,0.0002102,0.000212,0.0002092,0.00021,0.00014352,0.00014362,0.00014432,0.00014402,0.00014348,0.00014492,0.00014538,0.0001445,0.00014522,0.0001452,0.00012228,0.00012164,0.00012478,0.0001216,0.00012326,0.00012388,0.00012536,0.00012078,0.00012062,0.00012084
542,0.00014134,0.00013908,0.00013998,0.00013896,0.00013876,0.00014042,0.00014024,0.00014064,0.00014146,0.00013892,0.0002046,0.000205,0.0002046,0.0002044,0.0002052,0.0002044,0.000204,0.0002054,0.000202,0.0002034,0.00014438,0.00014434,0.00014498,0.0001449,0.0001441,0.00014562,0.00014604,0.0001452,0.00014568,0.0001453,0.00012488,0.0001239,0.00012514,0.00012606,0.00012614,0.0001261,0.0001254,0.00012108,0.00012462,0.00012346
544,0.00013776,0.000134,0.0001357,0.00013638,0.00013482,0.00013684,0.0001353,0.0001358,0.00013796,0.00013408,0.0002014,0.0002016,0.0002022,0.0002016,0.0002024,0.0002004,0.0002016,0.0002034,0.00019956,0.00019982,0.00014556,0.00014568,0.00014626,0.00014588,0.0001453,0.00014652,0.0001467,0.00014618,0.0001463,0.00014652,0.00012968,0.00013032,0.0001311,0.00013156,0.00013118,0.0001306,0.0001305,0.00012826,0.0001311,0.00012846
546,0.00013174,0.0001293,0.00013052,0.00013044,0.0001307,0.00013108,0.0001281,0.00013082,0.00013224,0.0001275,0.00019918,0.00019876,0.00019878,0.00019918,0.00019948,0.00019732,0.00019816,0.0002004,0.00019682,0.00019608,0.00014584,0.00014634,0.0001471,0.00014674,0.00014588,0.0001467,0.00014738,0.00014644,0.00014672,0.0001468,0.00013734,0.00013806,0.00013918,0.00013922,0.00013928,0.00013936,0.0001382,0.00013496,0.00013884,0.00013524
548,0.00012472,0.00012378,0.00012294,0.00012298,0.00012264,0.00012286,0.00012134,0.00012344,0.00012564,0.00012282,0.00019774,0.00019556,0.00019706,0.00019692,0.00019716,0.00019488,0.00019594,0.00019738,0.00019424,0.0001952,0.00014676,0.00014728,0.0001483,0.00014732,0.00014686,0.00014724,0.00014794,0.00014706,0.00014708,0.00014752,0.00014936,0.00014654,0.00014908,0.0001479,0.00014794,0.00014764,0.00014796,0.0001432,0.00014858,0.00014378
550,0.00011754,0.0001157,0.00011548,0.00011638,0.00011464,0.00011674,0.00011586,0.00011692,0.0001196,0.00011602,0.00019408,0.00019432,0.00019502,0.0001947,0.00019738,0.0001948,0.00019468,0.00019708,0.00019376,0.00019396,0.00014752,0.00014782,0.0001487,0.00014772,0.00014776,0.0001482,0.00014854,0.00014814,0.00014784,0.00014888,0.00016002,0.00015736,0.00016048,0.00015768,0.0001592,0.0001589,0.00015796,0.00015524,0.00015976,0.00015654
552,0.00011194,0.00010774,0.00010908,0.00011046,0.00010804,0.00011074,0.00010822,0.00011198,0.00011346,0.00010806,0.00019444,0.00019308,0.00019426,0.00019424,0.00019624,0.00019436,0.00019404,0.00019556,0.00019298,0.00019478,0.00014744,0.00014824,0.00014886,0.0001486,0.00014752,0.00014876,0.00014942,0.00014886,0.00014892,0.0001498,0.00018056,0.0001781,0.00018092,0.00017728,0.00018082,0.00017822,0.00017676,0.00017374,0.00017832,0.00017476
554,0.00010614,0.0001043,0.00010256,0.00010504,0.00010428,0.00010504,0.00010408,0.00010618,0.00010722,0.00010292,0.00019346,0.0001921,0.00019412,0.00019444,0.00019624,0.00019446,0.00019426,0.00019592,0.00019254,0.0001943,0.00014822,0.00014858,0.00014916,0.00014902,0.00014826,0.0001498,0.00014986,0.00014916,0.0001494,0.00015002,0.000244,0.0002446,0.0002434,0.0002422,0.0002444,0.0002374,0.0002358,0.0002332,0.0002366,0.000232
556,0.00010484,0.00010086,0.00010186,0.00010428,0.00010256,0.0001033,0.00010282,0.00010366,0.00010536,0.00010224,0.00019392,0.00019198,0.00019466,0.00019358,0.00019718,0.0001936,0.00019402,0.00019624,0.00019334,0.00019312,0.00014846,0.00014954,0.00014966,0.00014896,0.00014896,0.00015022,0.00015008,0.00014916,0.00014948,0.00015052,0.0004254,0.000425,0.0004246,0.000422,0.000424,0.0004012,0.000398,0.0003964,0.0004012,0.0003964
558,0.00010598,0.00010382,0.00010286,0.00010472,0.0001025,0.00010438,0.00010318,0.0001056,0.00010528,0.00010086,0.00019404,0.00019194,0.00019424,0.00019364,0.00019592,0.00019402,0.0001946,0.00019482,0.00019342,0.00019306,0.00014908,0.00014982,0.00015006,0.00014928,0.0001491,0.00015,0.00014978,0.00014912,0.0001495,0.00015044,0.0007926,0.0007894,0.0007902,0.000788,0.000788,0.0007428,0.000741,0.0007378,0.0007426,0.0007392
560,0.00010894,0.00010652,0.00010662,0.00010834,0.00010402,0.00010594,0.00010652,0.00010852,0.00010726,0.00010348,0.0001933,0.00019192,0.00019398,0.00019442,0.0001958,0.00019426,0.00019348,0.00019384,0.00019326,0.00019236,0.00014954,0.00014972,0.00015006,0.0001496,0.00014932,0.00014966,0.00014928,0.00014896,0.00014954,0.00015004,0.0013514,0.0013466,0.001349,0.0013428,0.0013438,0.0012732,0.0012688,0.0012676,0.001272,0.0012712
562,0.00011542,0.00011422,0.00011384,0.00011698,0.00011238,0.00011294,0.00011288,0.00011392,0.00011316,0.00010994,0.00019146,0.0001905,0.00019254,0.00019328,0.00019742,0.00019224,0.00019202,0.00019334,0.00019134,0.00019164,0.00014882,0.00014922,0.00014994,0.00014892,0.00014908,0.00014884,0.00014846,0.00014852,0.00014806,0.00014944,0.00211,0.002104,0.002104,0.002096,0.002098,0.0019976,0.0019938,0.001995,0.0019966,0.002004
564,0.00013828,0.00013542,0.00013598,0.00013786,0.00013638,0.00013294,0.00013482,0.00013344,0.00013456,0.00013166,0.00018906,0.00018852,0.00019014,0.00018966,0.00019226,0.0001907,0.00018938,0.0001905,0.0001895,0.00018966,0.00014698,0.00014734,0.00014802,0.00014728,0.00014706,0.00014702,0.00014682,0.00014642,0.0001467,0.00014736,0.003198,0.003182,0.003182,0.003172,0.003178,0.003052,0.003052,0.00305,0.003052,0.003074
566,0.0002226,0.0002184,0.0002206,0.0002224,0.0002194,0.0002078,0.0002096,0.0002106,0.0002084,0.000207,0.00018446,0.00018246,0.00018588,0.0001859,0.0001889,0.00018794,0.00018756,0.00018684,0.00018688,0.00018584,0.00014472,0.000145,0.00014558,0.00014484,0.00014478,0.00014546,0.0001454,0.00014498,0.0001452,0.00014594,0.004372,0.004336,0.004338,0.004322,0.004338,0.004202,0.004204,0.004208,0.004202,0.004252
568,0.0004552,0.0004512,0.0004534,0.0004544,0.0004518,0.000421,0.0004242,0.000426,0.0004218,0.0004202,0.00018056,0.0001786,0.00018202,0.00018184,0.00018402,0.00018466,0.00018358,0.0001844,0.00018506,0.00018316,0.0001424,0.00014256,0.00014274,0.00014224,0.0001425,0.00014344,0.00014348,0.00014318,0.00014316,0.00014414,0.005566,0.005502,0.005508,0.005484,0.005508,0.005382,0.005382,0.005388,0.005378,0.005462
570,0.0008954,0.0008956,0.0008942,0.000896,0.0008938,0.00084,0.0008446,0.0008472,0.0008386,0.0008424,0.00017626,0.0001734,0.00017636,0.00017594,0.00017796,0.00018072,0.00017882,0.00017856,0.00018036,0.00017726,0.0001391,0.00013956,0.00013936,0.00013936,0.00013966,0.00014058,0.00014054,0.00014028,0.00014028,0.0001412,0.006738,0.006642,0.00665,0.006618,0.006656,0.006538,0.00654,0.006546,0.00653,0.006648
572,0.0015412,0.0015486,0.0015396,0.0015406,0.0015392,0.0014622,0.0014666,0.0014724,0.0014574,0.0014678,0.00017056,0.00017052,0.00017142,0.00017084,0.0001711,0.00017534,0.00017512,0.0001735,0.00017442,0.00017234,0.00013696,0.00013782,0.00013758,0.00013738,0.00013762,0.00013878,0.00013828,0.00013838,0.00013806,0.00013874,0.007818,0.007694,0.007704,0.007662,0.007714,0.007604,0.007604,0.00761,0.007586,0.00774
574,0.002436,0.002456,0.002432,0.002436,0.002444,0.002326,0.002332,0.002352,0.002318,0.002342,0.00016858,0.00016934,0.00017012,0.00016908,0.00016934,0.00017248,0.00017198,0.00017138,0.00017218,0.00017058,0.00013732,0.00013786,0.00013782,0.00013776,0.0001377,0.00013822,0.00013776,0.00013806,0.0001371,0.00013828,0.00878,0.008632,0.008644,0.008594,0.00866,0.00855,0.008546,0.008554,0.008522,0.008706
576,0.003552,0.00361,0.003546,0.003548,0.003576,0.00341,0.00342,0.003466,0.003404,0.003454,0.00017604,0.00017488,0.00017788,0.0001776,0.00017626,0.00017812,0.00017744,0.0001771,0.00017794,0.00017436,0.00014322,0.0001436,0.00014336,0.0001429,0.00014398,0.00014264,0.00014204,0.00014256,0.0001415,0.00014228,0.00957,0.009404,0.00942,0.00936,0.009442,0.00932,0.009316,0.009326,0.00929,0.009488
578,0.004646,0.004758,0.004638,0.004642,0.004692,0.004486,0.0045,0.004588,0.004484,0.004574,0.0002008,0.0002004,0.0002042,0.0002018,0.0002038,0.00019956,0.0002002,0.00019856,0.00019964,0.0001952,0.00015862,0.00015852,0.0001587,0.00015842,0.0001589,0.00015564,0.00015546,0.00015582,0.0001548,0.0001553,0.010104,0.009942,0.00996,0.009898,0.00998,0.009856,0.009854,0.009864,0.009832,0.010016
580,0.005712,0.005886,0.005704,0.005708,0.005788,0.00555,0.005568,0.005706,0.005556,0.00569,0.0002578,0.0002574,0.0002584,0.0002582,0.0002592,0.0002516,0.0002514,0.0002502,0.0002516,0.0002492,0.00018946,0.00018914,0.00018924,0.000189,0.00018914,0.00018372,0.00018402,0.00018408,0.00018344,0.00018384,0.010418,0.010294,0.010314,0.010256,0.010326,0.010214,0.010218,0.010226,0.010202,0.010338
582,0.006684,0.006928,0.006678,0.00668,0.006796,0.006542,0.006562,0.006758,0.006552,0.006738,0.0003576,0.0003558,0.0003574,0.0003568,0.000358,0.0003454,0.0003448,0.0003438,0.0003454,0.0003442,0.0002396,0.0002394,0.000239,0.0002396,0.0002396,0.0002316,0.0002318,0.0002318,0.0002314,0.000232,0.010528,0.010468,0.01049,0.010444,0.010486,0.010408,0.010412,0.010416,0.010404,0.010464
584,0.007492,0.007786,0.007484,0.007488,0.007638,0.00739,0.00741,0.007648,0.007398,0.007622,0.0005228,0.0005212,0.0005232,0.0005204,0.000523,0.0005012,0.0005024,0.0005,0.0005004,0.0005012,0.0003118,0.0003112,0.000311,0.0003112,0.0003114,0.0003014,0.0003016,0.0003022,0.0003014,0.0003014,0.010498,0.0105,0.010522,0.010486,0.010502,0.010466,0.01047,0.010466,0.010472,0.010454
586,0.008104,0.008366,0.008094,0.008096,0.008246,0.008048,0.008064,0.008288,0.00805,0.008266,0.0008398,0.000839,0.0008376,0.0008364,0.0008412,0.000803,0.0008034,0.0008026,0.000802,0.0008068,0.0004232,0.000423,0.000423,0.000423,0.0004232,0.0004092,0.0004102,0.00041,0.0004088,0.0004084,0.010334,0.010384,0.010408,0.010384,0.010376,0.010386,0.010386,0.010372,0.010386,0.010312
588,0.008388,0.008534,0.008376,0.008382,0.00848,0.008366,0.00838,0.008516,0.00836,0.0085,0.0012238,0.0012244,0.0012226,0.0012162,0.0012236,0.0011778,0.0011784,0.001177,0.0011742,0.0011836,0.0005542,0.0005536,0.0005536,0.000554,0.0005538,0.0005366,0.0005372,0.000537,0.000536,0.0005356,0.010146,0.010216,0.010244,0.010226,0.010202,0.010238,0.010234,0.010214,0.010234,0.010128
590,0.008372,0.008344,0.00836,0.008366,0.008374,0.008378,0.00839,0.008382,0.008366,0.00838,0.0015864,0.0015872,0.0015852,0.0015772,0.0015882,0.0015436,0.0015438,0.001542,0.0015398,0.001549,0.000709,0.0007074,0.0007076,0.0007082,0.0007078,0.0006864,0.000687,0.0006866,0.000686,0.0006848,0.009918,0.009994,0.010018,0.010004,0.009978,0.010012,0.010006,0.009984,0.010004,0.009888
592,0.007938,0.007736,0.007926,0.00793,0.007844,0.007974,0.007984,0.007826,0.007964,0.00784,0.001819,0.0018178,0.0018176,0.0018108,0.0018182,0.001788,0.0017882,0.0017854,0.0017862,0.0017932,0.0008866,0.0008854,0.0008854,0.0008858,0.0008856,0.0008578,0.0008598,0.0008592,0.0008584,0.0008576,0.009654,0.009722,0.009748,0.009732,0.009708,0.009726,0.009724,0.009698,0.009718,0.00961
594,0.007048,0.006764,0.007036,0.007042,0.00691,0.007112,0.007126,0.006886,0.00711,0.006912,0.0018948,0.0018946,0.001894,0.001892,0.0018932,0.001879,0.0018802,0.0018784,0.0018772,0.0018816,0.0010874,0.0010854,0.0010862,0.0010862,0.0010864,0.0010526,0.001055,0.0010546,0.0010538,0.0010538,0.009354,0.009416,0.00944,0.009424,0.009404,0.0094,0.009404,0.009382,0.0094,0.009302
596,0.005712,0.00548,0.005702,0.00571,0.005598,0.005798,0.00581,0.005606,0.005804,0.005632,0.001848,0.0018508,0.001848,0.00185,0.0018466,0.0018464,0.0018468,0.001846,0.0018478,0.0018464,0.001321,0.0013186,0.0013194,0.0013196,0.0013188,0.001283,0.0012854,0.0012848,0.001285,0.0012848,0.008986,0.009034,0.009058,0.009044,0.009028,0.009014,0.009024,0.009006,0.009022,0.00894
598,0.004438,0.004298,0.00443,0.004436,0.004368,0.004536,0.004546,0.004414,0.004542,0.004434,0.001746,0.0017458,0.0017456,0.001749,0.0017448,0.0017504,0.0017522,0.00175,0.0017526,0.00175,0.0015398,0.0015374,0.001538,0.0015388,0.001537,0.001501,0.001505,0.001504,0.0015042,0.0015042,0.00863,0.00867,0.008694,0.008676,0.008664,0.008666,0.008672,0.00866,0.008674,0.008606
600,0.003308,0.003238,0.0033,0.003306,0.003274,0.003406,0.003414,0.003342,0.003412,0.003356,0.0016454,0.001644,0.0016426,0.001646,0.0016428,0.001649,0.0016504,0.0016494,0.0016502,0.0016474,0.0017578,0.0017552,0.0017556,0.0017564,0.0017548,0.0017214,0.0017246,0.0017238,0.001724,0.0017228,0.008274,0.008304,0.008328,0.008312,0.008302,0.008328,0.008336,0.008322,0.008332,0.008274
602,0.002366,0.002336,0.002362,0.002364,0.002354,0.002454,0.00246,0.002424,0.002458,0.002432,0.0016338,0.0016344,0.0016344,0.0016318,0.001633,0.0016236,0.0016254,0.001624,0.0016246,0.0016234,0.0019694,0.0019666,0.0019674,0.0019678,0.0019662,0.0019376,0.001941,0.0019388,0.0019386,0.0019374,0.007924,0.007948,0.00797,0.007952,0.007946,0.007996,0.008002,0.007986,0.007994,0.007942
604,0.0016204,0.0016098,0.0016174,0.001619,0.0016184,0.0016944,0.0016972,0.001679,0.0016928,0.0016828,0.001831,0.0018348,0.001832,0.001824,0.0018304,0.0017902,0.0017924,0.00179,0.0017892,0.0017952,0.00217,0.002168,0.002168,0.002168,0.002166,0.002142,0.002146,0.002144,0.002142,0.002142,0.007584,0.0076,0.007622,0.007602,0.007596,0.007664,0.007666,0.007648,0.007652,0.007606
606,0.0010326,0.0010332,0.0010318,0.0010312,0.0010326,0.001082,0.0010842,0.001074,0.0010802,0.0010778,0.00236,0.002364,0.002356,0.002338,0.002362,0.00227,0.002272,0.00227,0.002266,0.00229,0.002362,0.00236,0.002362,0.00236,0.002358,0.002338,0.002342,0.002338,0.002336,0.002336,0.007184,0.007196,0.007222,0.0072,0.007196,0.007262,0.007262,0.007244,0.007246,0.007206
608,0.0007288,0.0007294,0.0007252,0.0007266,0.0007306,0.0007516,0.0007518,0.000747,0.000749,0.0007488,0.003142,0.003148,0.003134,0.003092,0.003148,0.00299,0.002996,0.002992,0.002988,0.003046,0.00248,0.002476,0.002478,0.002478,0.002476,0.00246,0.002464,0.00246,0.00246,0.002458,0.006716,0.006726,0.006748,0.006732,0.006728,0.006788,0.006792,0.006772,0.006776,0.00674
610,0.0006246,0.0006262,0.0006222,0.000622,0.0006266,0.0006292,0.0006296,0.000628,0.0006284,0.0006318,0.00406,0.004072,0.004048,0.003966,0.004072,0.003838,0.003848,0.003846,0.00384,0.003948,0.002494,0.002492,0.002494,0.002492,0.002492,0.002484,0.002488,0.002486,0.002486,0.002484,0.006106,0.006118,0.006138,0.006122,0.006116,0.006182,0.006186,0.00617,0.006176,0.006138
612,0.0006036,0.000606,0.0005996,0.000601,0.000604,0.000601,0.000602,0.0006006,0.0006016,0.0006058,0.005036,0.005054,0.00502,0.004888,0.005058,0.004742,0.00476,0.004758,0.004754,0.004924,0.002396,0.002394,0.002396,0.002394,0.002394,0.002396,0.0024,0.0024,0.0024,0.0024,0.00537,0.005376,0.005398,0.00538,0.005378,0.00544,0.005448,0.00544,0.005444,0.005406
614,0.0006102,0.0006092,0.0006066,0.0006068,0.0006098,0.0006038,0.0006058,0.0006034,0.0006054,0.0006082,0.006002,0.006028,0.005976,0.00579,0.006032,0.00564,0.005664,0.005662,0.00566,0.005896,0.002186,0.002186,0.002188,0.002186,0.002186,0.002202,0.002206,0.002206,0.002208,0.002208,0.004574,0.004578,0.004596,0.004584,0.00458,0.004644,0.004654,0.004646,0.004654,0.004618
616,0.0006264,0.0006272,0.0006244,0.000623,0.0006276,0.0006226,0.0006218,0.0006216,0.0006206,0.000625,0.00695,0.00698,0.006918,0.006662,0.006988,0.006526,0.006556,0.006556,0.00655,0.006858,0.0018534,0.0018516,0.001854,0.0018532,0.0018532,0.0018832,0.001889,0.0018882,0.0018916,0.0018902,0.003692,0.00369,0.00371,0.003696,0.003692,0.003764,0.003772,0.003766,0.003774,0.00375
618,0.0006456,0.000648,0.0006428,0.0006428,0.0006456,0.0006436,0.0006422,0.000641,0.0006416,0.000645,0.00764,0.007666,0.007608,0.00732,0.007674,0.007216,0.007248,0.007246,0.007242,0.007576,0.0014708,0.0014696,0.0014718,0.0014714,0.0014708,0.0015128,0.0015168,0.0015162,0.0015182,0.0015166,0.002848,0.002844,0.00286,0.00285,0.002848,0.002928,0.002936,0.002928,0.002928,0.002914
620,0.0006702,0.0006722,0.0006678,0.0006664,0.0006684,0.000666,0.0006656,0.000666,0.0006646,0.0006682,0.00798,0.007992,0.007958,0.007718,0.007998,0.00765,0.007678,0.007674,0.007668,0.007938,0.0010904,0.00109,0.0010922,0.001091,0.0010902,0.001137,0.0011386,0.0011386,0.0011398,0.001138,0.00209,0.002086,0.002098,0.00209,0.00209,0.002166,0.002172,0.002164,0.002168,0.002156
622,0.0007082,0.0007066,0.0007074,0.0007054,0.0007052,0.0007028,0.0007006,0.0007,0.0007014,0.0007048,0.008044,0.008044,0.00804,0.007916,0.008044,0.007878,0.007896,0.00789,0.007882,0.008012,0.0007448,0.0007446,0.0007464,0.0007444,0.0007448,0.0007842,0.000785,0.000784,0.0007854,0.0007838,0.0014236,0.0014152,0.0014284,0.0014192,0.0014196,0.0014838,0.0014894,0.0014828,0.001485,0.0014788
624,0.0007696,0.0007674,0.0007674,0.0007654,0.0007634,0.0007616,0.0007564,0.0007558,0.000757,0.0007628,0.007918,0.007908,0.007926,0.007932,0.007902,0.00792,0.007922,0.007916,0.007906,0.00789,0.0005308,0.0005308,0.000531,0.00053,0.0005298,0.0005464,0.0005472,0.0005458,0.0005476,0.0005466,0.0009662,0.000958,0.0009676,0.0009602,0.0009616,0.0009964,0.0010026,0.000995,0.0009958,0.0009888
626,0.000862,0.0008596,0.0008582,0.0008614,0.000856,0.0008486,0.0008448,0.0008424,0.0008456,0.0008502,0.007662,0.007646,0.00768,0.007788,0.007638,0.007792,0.007782,0.007774,0.007766,0.007636,0.0005672,0.0005666,0.0005664,0.000567,0.0005656,0.0005482,0.0005504,0.0005482,0.0005494,0.0005498,0.0008736,0.0008654,0.0008702,0.0008668,0.0008676,0.0008596,0.0008608,0.000857,0.0008572,0.000857
628,0.000976,0.0009742,0.0009736,0.0009754,0.0009726,0.000957,0.0009558,0.0009558,0.0009574,0.0009636,0.00737,0.007352,0.00739,0.007534,0.007344,0.007542,0.00753,0.007524,0.007518,0.007348,0.0008322,0.0008316,0.0008312,0.0008316,0.0008302,0.0007896,0.0007914,0.0007906,0.0007906,0.0007914,0.0011188,0.0011118,0.0011174,0.001113,0.0011098,0.001077,0.0010798,0.0010748,0.001078,0.0010792
630,0.0010996,0.0010976,0.0010958,0.0010978,0.0010964,0.00108,0.0010782,0.001079,0.0010816,0.0010874,0.007084,0.007066,0.007104,0.007246,0.007062,0.00725,0.007238,0.007238,0.007232,0.00707,0.0011808,0.0011792,0.001179,0.0011796,0.0011768,0.0011252,0.0011282,0.0011266,0.001127,0.0011284,0.0014922,0.0014832,0.0014906,0.0014854,0.0014822,0.001437,0.001442,0.0014342,0.0014398,0.0014402
632,0.0012274,0.0012264,0.0012246,0.0012272,0.0012232,0.0012056,0.001204,0.0012072,0.001209,0.0012112,0.00679,0.006774,0.006808,0.006928,0.006768,0.006934,0.006926,0.006928,0.006924,0.00678,0.0015532,0.0015512,0.001551,0.0015516,0.0015482,0.001491,0.0014954,0.0014938,0.0014944,0.0014958,0.0019,0.001891,0.001899,0.0018924,0.0018898,0.0018414,0.0018458,0.0018384,0.0018436,0.001844
634,0.0013588,0.0013558,0.0013572,0.0013594,0.001353,0.0013358,0.0013344,0.0013386,0.0013394,0.0013398,0.006488,0.006474,0.006504,0.006604,0.006468,0.00661,0.006606,0.006608,0.006604,0.00648,0.0019298,0.0019274,0.0019274,0.0019284,0.0019248,0.0018644,0.001869,0.001867,0.0018688,0.001869,0.002314,0.002304,0.002314,0.002306,0.002302,0.002252,0.002256,0.00225,0.002256,0.002252
636,0.0015016,0.0014974,0.001498,0.0015,0.0014928,0.001477,0.0014758,0.00148,0.0014786,0.0014824,0.00615,0.00614,0.006162,0.00624,0.006136,0.00625,0.006246,0.006248,0.006246,0.006142,0.002334,0.002332,0.002332,0.00233,0.00233,0.002268,0.002274,0.00227,0.00227,0.002272,0.00276,0.002752,0.002758,0.002754,0.002752,0.002702,0.002704,0.002698,0.0027,0.002694
638,0.0016232,0.0016196,0.0016204,0.0016216,0.0016134,0.001601,0.0015992,0.0016016,0.0016022,0.0016004,0.005848,0.005838,0.00586,0.005918,0.005834,0.00593,0.005926,0.005926,0.00592,0.005838,0.002686,0.002684,0.002682,0.002682,0.00268,0.002624,0.002626,0.002622,0.002622,0.002622,0.00315,0.00314,0.003148,0.00314,0.003142,0.003096,0.003094,0.003086,0.003092,0.003086
640,0.0017388,0.001733,0.0017358,0.0017374,0.0017328,0.0017178,0.001716,0.0017148,0.0017182,0.0017162,0.00558,0.005574,0.00559,0.005636,0.00557,0.005652,0.005646,0.005642,0.005634,0.005568,0.002982,0.00298,0.00298,0.00298,0.002976,0.002926,0.002928,0.002922,0.002922,0.002922,0.003458,0.003444,0.003454,0.003446,0.003446,0.003412,0.003406,0.003398,0.003402,0.0034
642,0.0018506,0.0018452,0.0018486,0.0018502,0.001844,0.0018286,0.0018256,0.0018256,0.001829,0.0018268,0.005342,0.00533,0.005344,0.005382,0.00533,0.005392,0.005388,0.005382,0.005374,0.005322,0.0032,0.003196,0.003198,0.003198,0.003194,0.003154,0.003154,0.00315,0.003148,0.003148,0.003632,0.003622,0.00363,0.003624,0.003624,0.003602,0.003596,0.00359,0.00359,0.00359
644,0.0019638,0.0019548,0.001957,0.0019604,0.0019508,0.0019364,0.0019348,0.0019342,0.0019408,0.0019356,0.005132,0.005128,0.005138,0.005166,0.005126,0.005172,0.005166,0.005164,0.005156,0.005118,0.003334,0.00333,0.003332,0.003332,0.003328,0.003298,0.003298,0.003294,0.003294,0.003294,0.003684,0.00367,0.00368,0.003676,0.003676,0.003662,0.003656,0.003648,0.003654,0.003648
646,0.002088,0.002078,0.002088,0.002092,0.002078,0.002062,0.002062,0.00206,0.002066,0.00206,0.004934,0.004928,0.004936,0.00496,0.004926,0.004954,0.004954,0.004954,0.00495,0.00492,0.003396,0.003392,0.003394,0.003394,0.00339,0.003366,0.003368,0.003364,0.003364,0.003364,0.003664,0.00365,0.003662,0.003658,0.003654,0.003646,0.003636,0.003636,0.00365,0.003632
648,0.002202,0.002192,0.002196,0.0022,0.00219,0.002172,0.002176,0.002174,0.00218,0.002176,0.004774,0.004768,0.004778,0.004794,0.004766,0.004792,0.004792,0.004796,0.004792,0.00477,0.00341,0.003408,0.003408,0.003408,0.003404,0.003384,0.003388,0.003384,0.003386,0.003388,0.003624,0.00362,0.003626,0.003622,0.003622,0.003612,0.003606,0.003608,0.003618,0.003606
650,0.002286,0.00228,0.002282,0.002284,0.002274,0.002256,0.00226,0.002262,0.002268,0.00226,0.004596,0.004594,0.004598,0.004618,0.004594,0.004616,0.004618,0.004624,0.004622,0.004602,0.003388,0.003384,0.003386,0.003384,0.003382,0.003366,0.003372,0.00337,0.003372,0.003374,0.003556,0.003556,0.003564,0.003556,0.003558,0.003552,0.003546,0.003546,0.00356,0.00355
652,0.002338,0.00233,0.002332,0.002334,0.002328,0.002312,0.002316,0.002318,0.002322,0.002316,0.00438,0.004378,0.004382,0.0044,0.004378,0.0044,0.004406,0.004408,0.004408,0.004386,0.0033,0.003294,0.003298,0.003296,0.003294,0.003286,0.003292,0.00329,0.003294,0.003296,0.003424,0.003424,0.003432,0.003422,0.003428,0.003428,0.003424,0.003424,0.003436,0.003424
654,0.002372,0.002364,0.002364,0.00237,0.002358,0.002346,0.002354,0.00235,0.002354,0.002352,0.004156,0.004156,0.004158,0.004174,0.004156,0.004178,0.00418,0.004186,0.004182,0.00416,0.003122,0.003118,0.003122,0.00312,0.003118,0.003128,0.003132,0.003132,0.003132,0.003134,0.0032,0.003202,0.003208,0.003198,0.003206,0.003222,0.003212,0.00321,0.003224,0.003214
656,0.002402,0.0024,0.002394,0.0024,0.002394,0.002382,0.002384,0.002382,0.002384,0.002376,0.00394,0.003942,0.003942,0.003956,0.003938,0.003958,0.003958,0.00396,0.003956,0.003934,0.002804,0.0028,0.002804,0.002802,0.002802,0.002828,0.002832,0.00283,0.00283,0.00283,0.00284,0.002838,0.002844,0.002834,0.002844,0.00287,0.002866,0.002862,0.002872,0.002858
658,0.002436,0.002432,0.002428,0.002432,0.002428,0.002408,0.002414,0.00241,0.00241,0.0024,0.003784,0.003782,0.00378,0.003796,0.003778,0.003792,0.00379,0.003788,0.003784,0.003768,0.002442,0.00244,0.002442,0.002442,0.00244,0.002476,0.002478,0.002474,0.002474,0.002472,0.002468,0.00247,0.00247,0.002466,0.002478,0.0025,0.002494,0.002494,0.0025,0.002488
660,0.002462,0.00246,0.002458,0.00246,0.002454,0.002436,0.00244,0.002436,0.00243,0.00242,0.003644,0.003642,0.003642,0.003656,0.003642,0.003646,0.003642,0.003638,0.003634,0.003622,0.002054,0.002052,0.002054,0.002054,0.002054,0.002092,0.002092,0.002088,0.002088,0.002086,0.002078,0.002084,0.002082,0.002084,0.002094,0.002116,0.002108,0.002108,0.002114,0.002102
662,0.002476,0.002468,0.002472,0.00247,0.00247,0.002448,0.00245,0.002442,0.00244,0.00243,0.003508,0.00351,0.003506,0.003518,0.003504,0.003504,0.0035,0.003496,0.003492,0.003482,0.001664,0.0016606,0.0016618,0.0016626,0.001663,0.001702,0.0017004,0.0016962,0.001697,0.001694,0.0016954,0.0017,0.0016954,0.0016938,0.0017054,0.0017286,0.0017212,0.0017186,0.0017272,0.0017178
664,0.002444,0.002438,0.00244,0.002438,0.00244,0.00242,0.002422,0.002414,0.002416,0.002402,0.003336,0.003334,0.003332,0.003342,0.00333,0.003334,0.00333,0.003326,0.003322,0.003312,0.0012572,0.0012536,0.0012558,0.0012546,0.001258,0.001295,0.0012936,0.0012926,0.0012918,0.0012898,0.0012924,0.001295,0.001289,0.0012944,0.0013056,0.0013254,0.001322,0.0013206,0.0013226,0.0013202
666,0.002312,0.002308,0.002308,0.002308,0.002306,0.002306,0.002304,0.002296,0.002298,0.002286,0.003066,0.003066,0.003066,0.003078,0.003064,0.003078,0.003074,0.003074,0.003072,0.003062,0.0008642,0.0008626,0.0008646,0.0008634,0.0008654,0.0009022,0.000902,0.0009012,0.0009,0.0008988,0.0009004,0.0009048,0.0009026,0.0009034,0.0009136,0.000931,0.000932,0.0009336,0.0009324,0.0009336
668,0.0021,0.002094,0.002096,0.002092,0.002094,0.0021,0.0021,0.002094,0.0021,0.002088,0.002734,0.00273,0.00273,0.002744,0.002726,0.002756,0.002752,0.002754,0.002752,0.002744,0.0005506,0.0005482,0.0005498,0.0005498,0.0005522,0.0005832,0.000582,0.0005824,0.0005804,0.0005796,0.0005876,0.000591,0.000585,0.0005878,0.0005972,0.0006132,0.0006132,0.0006142,0.0006144,0.0006222
670,0.0018366,0.0018392,0.0018326,0.0018334,0.0018342,0.0018514,0.0018516,0.0018434,0.0018526,0.0018384,0.002356,0.002356,0.002354,0.002368,0.002352,0.00239,0.00239,0.002388,0.002388,0.00238,0.0003288,0.0003266,0.0003272,0.000328,0.0003304,0.0003476,0.0003478,0.0003482,0.000347,0.000346,0.0003638,0.0003734,0.0003622,0.000365,0.0003798,0.0003816,0.0003762,0.0003818,0.000382,0.0003912
672,0.0015536,0.0015542,0.00155,0.0015488,0.0015526,0.0015736,0.0015764,0.0015686,0.0015732,0.0015624,0.00197,0.0019704,0.0019666,0.0019814,0.0019654,0.00201,0.00201,0.00201,0.002008,0.002002,0.0002156,0.000214,0.0002144,0.0002136,0.000216,0.000222,0.0002228,0.000222,0.000222,0.0002212,0.0002528,0.00026,0.0002512,0.0002518,0.0002646,0.0002548,0.0002534,0.0002602,0.0002536,0.000272
674,0.0012244,0.001233,0.001227,0.0012228,0.0012256,0.0012528,0.001255,0.0012466,0.0012506,0.001242,0.0015408,0.0015418,0.0015428,0.0015544,0.001538,0.0015876,0.0015856,0.0015852,0.0015842,0.001579,0.00017096,0.00016838,0.0001697,0.0001697,0.00017214,0.0001703,0.00017116,0.00017218,0.00017072,0.00017022,0.0002088,0.0002182,0.0002062,0.0002076,0.0002164,0.0002064,0.0002072,0.0002078,0.0002084,0.0002172
676,0.0009254,0.000936,0.0009232,0.0009218,0.0009274,0.0009544,0.0009552,0.000949,0.0009514,0.0009432,0.0011624,0.0011654,0.0011596,0.0011726,0.0011592,0.0012066,0.001204,0.0012058,0.0012018,0.0012042,0.00015616,0.00015314,0.00015512,0.00015436,0.00015626,0.00015516,0.00015434,0.00015574,0.00015322,0.00015432,0.00019322,0.0002036,0.00018932,0.00019626,0.0002042,0.00019262,0.00019452,0.0001966,0.00019084,0.000206
678,0.0006494,0.0006638,0.0006486,0.0006486,0.0006532,0.0006798,0.0006766,0.000674,0.0006736,0.0006656,0.000826,0.0008278,0.0008232,0.0008326,0.0008196,0.0008636,0.0008612,0.0008618,0.000859,0.0008598,0.000148,0.00014612,0.00014638,0.00014766,0.00014784,0.00014656,0.0001463,0.00014764,0.0001446,0.00014566,0.0001897,0.00019436,0.00018272,0.00018594,0.00019684,0.00018608,0.00018864,0.00018722,0.00018006,0.00019774
680,0.0004218,0.0004326,0.0004192,0.0004182,0.0004244,0.0004418,0.000441,0.0004374,0.000433,0.000434,0.0005442,0.0005416,0.0005444,0.000549,0.0005398,0.0005722,0.000568,0.0005712,0.000568,0.000566,0.00014326,0.00013994,0.0001402,0.00014148,0.0001428,0.00014054,0.0001401,0.00014112,0.00013952,0.00013908,0.00018596,0.00019222,0.00018334,0.00017908,0.00018914,0.00017712,0.00018452,0.00018106,0.00017386,0.00019724
682,0.0002678,0.0002806,0.0002696,0.0002698,0.0002738,0.000282,0.000282,0.0002834,0.0002728,0.0002798,0.0003606,0.0003604,0.0003598,0.000364,0.0003532,0.0003736,0.000372,0.000374,0.0003664,0.0003714,0.00013892,0.00013748,0.00013806,0.00013822,0.00014056,0.00013654,0.00013726,0.00013792,0.0001376,0.0001369,0.00018092,0.00018988,0.00018426,0.00017892,0.00018506,0.00017996,0.00017516,0.0001759,0.00016738,0.00018998
684,0.000202,0.0002152,0.000202,0.00019968,0.000212,0.0002048,0.0002074,0.0002064,0.0002018,0.0002064,0.000278,0.0002746,0.0002732,0.0002796,0.0002702,0.0002784,0.0002742,0.000277,0.0002746,0.0002816,0.00013636,0.00013402,0.00013518,0.00013512,0.00013746,0.00013252,0.00013282,0.00013466,0.00013348,0.00013408,0.00018488,0.00019032,0.00018544,0.00017428,0.00018488,0.00017838,0.00018064,0.00017448,0.00017108,0.00019206
686,0.0001858,0.00019528,0.0001793,0.00017734,0.00019086,0.00018296,0.00018358,0.0001796,0.00017908,0.00018434,0.000246,0.0002438,0.0002416,0.000245,0.0002394,0.0002436,0.0002418,0.0002384,0.0002364,0.0002488,0.00013026,0.00012946,0.00012944,0.00012898,0.00012984,0.00012722,0.0001267,0.00012826,0.00012776,0.0001292,0.00017972,0.00018656,0.00017578,0.0001728,0.00017192,0.00017388,0.00017176,0.00016916,0.00016562,0.00018716
688,0.00016924,0.00018254,0.00016506,0.00016652,0.00017616,0.00016664,0.00017248,0.00017138,0.0001661,0.000173,0.000225,0.0002274,0.0002202,0.000225,0.0002202,0.0002234,0.000221,0.0002198,0.0002162,0.0002248,0.00012278,0.000122,0.00012332,0.00012226,0.00012358,0.00011898,0.00012024,0.00012066,0.00012166,0.00012244,0.00017088,0.00017728,0.00017114,0.00016498,0.00016782,0.000166,0.00016578,0.00016496,0.00016062,0.00018528
690,0.0001614,0.0001783,0.00015992,0.00015538,0.00016302,0.00015852,0.00016284,0.0001594,0.00015652,0.00016634,0.0002084,0.0002126,0.000204,0.0002084,0.0002044,0.0002058,0.0002024,0.0001992,0.0001985,0.000206,0.0001153,0.00011314,0.00011504,0.0001164,0.00011562,0.00011246,0.00011424,0.00011462,0.00011588,0.00011484,0.00017008,0.00017046,0.0001651,0.0001602,0.00016724,0.00015968,0.00016334,0.00015388,0.00014888,0.00017772
692,0.00015274,0.00016128,0.0001474,0.0001445,0.00015408,0.0001438,0.00015168,0.00015494,0.00014404,0.00015442,0.00019374,0.0001858,0.00018938,0.00018982,0.00018706,0.0001889,0.00018372,0.0001854,0.00018562,0.00019036,0.000107,0.0001066,0.000107,0.00010666,0.00010776,0.00010338,0.00010606,0.00010532,0.00010622,0.00010854,0.00015708,0.0001545,0.00015884,0.00015362,0.00015164,0.00015034,0.00016272,0.00014888,0.00014272,0.00016416
694,0.00014134,0.00014938,0.0001359,0.00013378,0.0001416,0.00013538,0.0001404,0.00014472,0.00013378,0.00014858,0.00017586,0.00016938,0.00017154,0.00017236,0.00016858,0.0001716,0.0001701,0.00017036,0.00016846,0.00017326,9.874e-05,9.804e-05,9.958e-05,9.862e-05,9.962e-05,9.66e-05,9.708e-05,9.862e-05,0.00010092,9.996e-05,0.00015206,0.00014584,0.00015148,0.00014326,0.00014212,0.00014528,0.00015462,0.00013758,0.00013624,0.00015712
696,0.00013514,0.0001403,0.00012924,0.00012722,0.00013726,0.00012788,0.00013384,0.00013172,0.00012576,0.0001411,0.00015988,0.0001603,0.00015788,0.00016056,0.00015742,0.00015868,0.0001589,0.00015378,0.00015348,0.00015748,9.092e-05,9.09e-05,9.29e-05,9.094e-05,9.114e-05,8.946e-05,9.184e-05,9.25e-05,9.372e-05,9.284e-05,0.0001442,0.00013582,0.00014606,0.00013594,0.00013686,0.00013432,0.0001449,0.0001344,0.00012842,0.00015492
698,0.00012422,0.00012862,0.00012424,0.00011552,0.00012562,0.00012048,0.00012064,0.000127,0.00011978,0.00014252,0.0001485,0.00014518,0.00014444,0.00015042,0.00014458,0.00014854,0.00014638,0.0001431,0.00014158,0.0001432,8.318e-05,8.506e-05,8.578e-05,8.4e-05,8.356e-05,8.224e-05,8.59e-05,8.52e-05,8.71e-05,8.674e-05,0.00013674,0.00012844,0.0001403,0.00013378,0.00012256,0.00013486,0.00013462,0.00013248,0.0001251,0.00014776
700,0.00011712,0.00011944,0.00011214,0.0001082,0.00012322,0.0001095,0.0001139,0.00012172,0.00011122,0.00012668,0.00013686,0.00014102,0.00013726,0.00013792,0.0001343,0.00013954,0.00013976,0.00013422,0.0001348,0.00013854,7.872e-05,7.942e-05,8.094e-05,7.884e-05,7.786e-05,7.816e-05,7.9e-05,8.062e-05,8.29e-05,8.15e-05,0.00014056,0.00012386,0.0001394,0.00012744,0.00012252,0.0001244,0.0001333,0.00012312,0.00012074,0.00013204
702,0.00011396,0.0001152,0.00010438,0.00010374,0.00011996,0.00010904,0.00010904,0.00011346,0.00010642,0.00012134,0.00013328,0.0001305,0.00012978,0.00012454,0.0001243,0.00012628,0.00012868,0.00012238,0.00012492,0.0001233,7.472e-05,7.454e-05,7.512e-05,7.508e-05,7.308e-05,7.162e-05,7.422e-05,7.362e-05,7.84e-05,7.614e-05,0.00012806,0.00011762,0.00013404,0.0001237,0.00011052,0.00011692,0.00012716,0.00011848,0.00011006,0.00012464
704,0.00010842,0.00010818,9.844e-05,9.916e-05,0.0001121,0.00010284,0.00010348,0.00010704,0.00010086,0.00012242,0.00012352,0.0001216,0.00012406,0.00011666,0.00012052,0.00012136,0.00012106,0.00011482,0.00011798,0.00011626,6.924e-05,7.184e-05,7.168e-05,6.934e-05,6.96e-05,6.798e-05,7.064e-05,6.98e-05,7.266e-05,7.174e-05,0.0001315,0.00010772,0.0001219,0.00011952,0.00010664,0.00011588,0.00011934,0.00011144,0.00010926,0.0001211
706,0.00010664,0.00010238,9.638e-05,9.528e-05,0.00010244,9.75e-05,9.91e-05,0.00010318,9.592e-05,0.00011736,0.00011806,0.00011764,0.00011638,0.0001141,0.00011912,0.00011878,0.00011694,0.0001098,0.00011596,0.0001086,6.61e-05,6.948e-05,6.862e-05,6.648e-05,6.564e-05,6.474e-05,6.66e-05,6.648e-05,6.882e-05,6.848e-05,0.0001266,0.00010278,0.00011974,0.00011386,0.00010632,0.000114,0.00012,0.00010748,0.00010848,0.00011226
708,0.00010316,0.00010406,9.412e-05,9.518e-05,0.00010402,9.296e-05,9.78e-05,9.682e-05,9.162e-05,0.00010956,0.00011448,0.0001095,0.00011456,0.00011038,0.00011642,0.00011428,0.00011302,0.00010792,0.00011128,0.00011142,6.282e-05,6.572e-05,6.588e-05,6.406e-05,6.126e-05,6.25e-05,6.418e-05,6.44e-05,6.758e-05,6.692e-05,0.00012654,0.0001006,0.00011438,0.0001104,9.904e-05,0.00011026,0.00011646,0.00010342,0.0001035,0.00011054
710,9.756e-05,9.62e-05,9.402e-05,9.11e-05,9.638e-05,9.19e-05,9.01e-05,9.364e-05,8.79e-05,0.00011136,0.00011224,0.00011222,0.0001099,0.00010154,0.0001157,0.00010786,0.00011326,0.00010234,0.0001105,0.00010808,6.094e-05,6.442e-05,6.31e-05,6.204e-05,6.054e-05,5.988e-05,6.39e-05,6.108e-05,6.62e-05,6.48e-05,0.00012324,9.434e-05,0.0001104,0.00011122,9.212e-05,0.00010798,0.00011208,0.00011566,0.0001035,0.00010688
712,9.79e-05,9.846e-05,8.858e-05,8.74e-05,9.134e-05,9.336e-05,8.904e-05,9.462e-05,9.364e-05,0.00010468,0.00011032,0.0001122,0.00011406,0.00010008,0.00011566,0.00010524,0.00011276,0.0001021,0.00010852,0.0001084,5.874e-05,6.262e-05,6.21e-05,5.978e-05,5.872e-05,5.846e-05,6.284e-05,5.98e-05,6.394e-05,6.294e-05,0.00012042,9.096e-05,0.00011034,0.00010938,9.384e-05,0.00010044,0.00011062,0.00010308,9.642e-05,0.00010498
714,9.436e-05,9.462e-05,9.034e-05,8.484e-05,8.624e-05,9.192e-05,8.608e-05,9.118e-05,8.684e-05,0.00010262,0.00010526,0.00010694,0.00011334,9.664e-05,0.00011546,0.00010294,0.00010702,0.0001013,0.00010654,0.00010366,5.49e-05,6.122e-05,5.954e-05,5.756e-05,5.496e-05,5.514e-05,5.934e-05,5.714e-05,6.196e-05,6.032e-05,0.00011752,9.298e-05,0.00010778,0.000108,8.508e-05,9.858e-05,0.00010896,0.00010558,9.706e-05,0.00010266
716,8.406e-05,9.118e-05,8.484e-05,8.216e-05,8.19e-05,9.214e-05,8.288e-05,8.758e-05,8.884e-05,9.744e-05,9.492e-05,0.00010192,0.00010644,9.192e-05,0.00011742,9.76e-05,0.00010584,0.00010082,0.00010836,0.00010164,5.302e-05,5.848e-05,5.714e-05,5.672e-05,5.178e-05,5.466e-05,5.744e-05,5.774e-05,5.756e-05,5.656e-05,0.00010968,8.904e-05,9.68e-05,0.00010784,8.268e-05,9.83e-05,0.00010696,0.000102,9.51e-05,9.034e-05
718,8.698e-05,8.052e-05,8.066e-05,7.832e-05,7.474e-05,8.798e-05,7.11e-05,8.128e-05,8.604e-05,9.782e-05,8.884e-05,9.326e-05,9.88e-05,8.972e-05,0.0001057,9.544e-05,0.00010386,0.00010034,0.0001033,9.86e-05,4.858e-05,5.37e-05,5.38e-05,5.406e-05,5.018e-05,5.058e-05,5.508e-05,5.346e-05,5.42e-05,5.66e-05,0.0001035,7.766e-05,8.944e-05,0.00010898,7.406e-05,8.586e-05,9.35e-05,9.458e-05,9.414e-05,8.83e-05
720,7.608e-05,7.696e-05,7.098e-05,8.214e-05,6.812e-05,8.418e-05,7.1e-05,7.754e-05,8.216e-05,8.162e-05,8.566e-05,7.958e-05,9.6e-05,8.268e-05,0.00010648,8.774e-05,0.0001038,9.158e-05,9.528e-05,9.812e-05,4.712e-05,5.26e-05,5.042e-05,4.986e-05,4.728e-05,5.078e-05,5.126e-05,5.01e-05,5.068e-05,5.164e-05,9.564e-05,7.724e-05,9.036e-05,9.798e-05,6.742e-05,8.55e-05,8.698e-05,9.828e-05,9.3e-05,8.252e-05
722,7.46e-05,7.446e-05,6.578e-05,7.34e-05,6.832e-05,8.108e-05,6.346e-05,6.298e-05,7.856e-05,7.538e-05,7.514e-05,8.29e-05,9.57e-05,8.048e-05,0.00010002,8.316e-05,9.738e-05,9.256e-05,9.446e-05,9.072e-05,4.442e-05,4.778e-05,4.918e-05,4.764e-05,4.502e-05,4.898e-05,5.034e-05,4.746e-05,4.98e-05,5.126e-05,9.428e-05,7.318e-05,7.974e-05,8.768e-05,6.78e-05,8.23e-05,8.18e-05,9.866e-05,8.028e-05,8.126e-05
724,6.994e-05,6.312e-05,6.476e-05,6.618e-05,5.874e-05,7.868e-05,5.372e-05,6.018e-05,7.206e-05,6.44e-05,7.76e-05,7.814e-05,9.032e-05,7.906e-05,8.736e-05,8.286e-05,9.516e-05,8.916e-05,9.258e-05,8.898e-05,4.168e-05,4.73e-05,4.632e-05,4.7e-05,4.41e-05,4.644e-05,4.94e-05,4.626e-05,4.654e-05,4.986e-05,8.816e-05,6.824e-05,8.32e-05,8.64e-05,5.74e-05,7.922e-05,8.784e-05,9.76e-05,7.848e-05,8.058e-05
726,6.432e-05,6.394e-05,6.626e-05,7.334e-05,5.95e-05,8.04e-05,6.218e-05,5.362e-05,7.758e-05,6.564e-05,7.73e-05,7.454e-05,9.6e-05,7.7e-05,9.258e-05,7.826e-05,9.166e-05,8.478e-05,8.836e-05,8.93e-05,4.222e-05,4.62e-05,4.54e-05,4.454e-05,4.408e-05,4.428e-05,4.73e-05,4.44e-05,4.322e-05,4.624e-05,8.66e-05,7.184e-05,7.552e-05,8.718e-05,6.516e-05,7.392e-05,8.876e-05,9.668e-05,7.39e-05,6.548e-05
728,5.986e-05,6.538e-05,5.6e-05,6.85e-05,5.58e-05,7.89e-05,5.124e-05,4.872e-05,7.174e-05,5.786e-05,6.86e-05,7.686e-05,9.1e-05,8.072e-05,8.444e-05,7.582e-05,9.198e-05,8.542e-05,9.26e-05,9.512e-05,4.206e-05,4.618e-05,4.632e-05,4.404e-05,4.166e-05,4.49e-05,4.542e-05,4.302e-05,4.49e-05,4.62e-05,7.354e-05,6.426e-05,6.984e-05,8.83e-05,6.36e-05,7.602e-05,8.174e-05,9.874e-05,6.418e-05,6.31e-05
730,5.948e-05,6.116e-05,6.04e-05,6.84e-05,5.742e-05,7.378e-05,5.238e-05,4.802e-05,7.22e-05,5.526e-05,7.42e-05,6.892e-05,8.898e-05,8.03e-05,7.862e-05,7.21e-05,9.21e-05,8.982e-05,8.964e-05,9.224e-05,4.126e-05,4.642e-05,4.474e-05,4.718e-05,4.14e-05,4.478e-05,4.756e-05,4.216e-05,4.246e-05,4.684e-05,8.38e-05,6.414e-05,6.874e-05,9.89e-05,6.62e-05,7.262e-05,7.196e-05,8.842e-05,7.534e-05,7.03e-05
732,5.388e-05,5.038e-05,6.168e-05,6.65e-05,4.756e-05,7.478e-05,5.336e-05,4.42e-05,7.312e-05,5.012e-05,7.06e-05,6.632e-05,8.836e-05,7.77e-05,8.788e-05,7.548e-05,9.076e-05,8.464e-05,8.984e-05,9.106e-05,4.136e-05,4.522e-05,4.286e-05,4.704e-05,4.296e-05,4.558e-05,4.778e-05,4.398e-05,4.296e-05,4.728e-05,8.96e-05,7.154e-05,7.454e-05,8.828e-05,6.834e-05,6.592e-05,6.788e-05,9.502e-05,6.522e-05,7.82e-05
734,4.822e-05,4.846e-05,5.308e-05,7.022e-05,4.752e-05,6.736e-05,4.572e-05,4.67e-05,6.424e-05,3.15e-05,7.334e-05,5.974e-05,8.448e-05,7.416e-05,8.07e-05,7.67e-05,8.65e-05,8.226e-05,8.336e-05,9.066e-05,3.962e-05,4.304e-05,4.068e-05,4.394e-05,4.2e-05,4.626e-05,4.6e-05,4.192e-05,4.082e-05,4.664e-05,7.942e-05,6.796e-05,6.258e-05,7.91e-05,6.884e-05,7.046e-05,6.534e-05,8.374e-05,5.628e-05,8.228e-05
736,4.538e-05,3.798e-05,4.93e-05,6.09e-05,3.906e-05,5.956e-05,3.682e-05,3.684e-05,5.906e-05,2.88e-05,5.534e-05,4.66e-05,7.862e-05,7.274e-05,6.552e-05,6.354e-05,8.11e-05,7.518e-05,7.706e-05,8.992e-05,3.344e-05,3.756e-05,3.836e-05,3.85e-05,3.718e-05,4.36e-05,3.976e-05,4.028e-05,3.61e-05,3.998e-05,7.052e-05,6.468e-05,6.06e-05,7.006e-05,7.24e-05,6.496e-05,6.81e-05,7.744e-05,5.8e-05,5.732e-05
738,2.932e-05,3.528e-05,3.536e-05,5.186e-05,3.188e-05,5.082e-05,2.726e-05,2.798e-05,5.24e-05,1.7504e-05,4.834e-05,4.812e-05,7.072e-05,6.87e-05,6.976e-05,5.72e-05,7.526e-05,6.89e-05,7.526e-05,8.288e-05,2.936e-05,3.352e-05,3.2e-05,3.282e-05,3.272e-05,3.928e-05,3.694e-05,3.754e-05,3.068e-05,3.308e-05,5.894e-05,5.136e-05,5.612e-05,6.652e-05,6.416e-05,5.74e-05,5.424e-05,7.868e-05,4.682e-05,5.71e-05
740,2.452e-05,3.298e-05,2.67e-05,4.156e-05,1.5982e-05,4.556e-05,2.112e-05,1.3402e-05,5.284e-05,6.914e-06,4.62e-05,3.652e-05,6.146e-05,6.74e-05,6.094e-05,5.24e-05,6.956e-05,6.546e-05,6.556e-05,7.914e-05,2.58e-05,2.808e-05,2.808e-05,2.782e-05,2.89e-05,3.486e-05,3.454e-05,3.244e-05,2.616e-05,2.954e-05,5.268e-05,4.522e-05,4.35e-05,5.834e-05,5.808e-05,5.506e-05,5.186e-05,6.762e-05,3.42e-05,5.286e-05
742,2.178e-05,2.21e-05,3.02e-05,3.796e-05,1.9884e-05,3.44e-05,2.774e-05,1.8038e-05,4.316e-05,4.888e-06,4.416e-05,2.818e-05,6.118e-05,6.326e-05,5.75e-05,5.006e-05,6.428e-05,6.422e-05,6.63e-05,7.572e-05,2.276e-05,2.39e-05,2.266e-05,2.61e-05,2.778e-05,3.104e-05,2.876e-05,2.784e-05,2.254e-05,2.63e-05,3.196e-05,3.76e-05,3.714e-05,5.678e-05,5.016e-05,5.402e-05,3.406e-05,6.51e-05,4.224e-05,5.012e-05
744,1.9068e-05,2.728e-05,3.346e-05,3.562e-05,2.022e-05,2.924e-05,1.2572e-05,6.218e-06,3.77e-05,1.1446e-06,3.61e-05,2.838e-05,5.254e-05,5.818e-05,4.358e-05,4.96e-05,5.318e-05,5.174e-05,6.238e-05,6.076e-05,2.052e-05,2.05e-05,1.9546e-05,2.294e-05,2.102e-05,2.776e-05,2.482e-05,2.666e-05,1.662e-05,1.842e-05,3.118e-05,4.13e-05,2.07e-05,4.196e-05,5.612e-05,3.416e-05,3.82e-05,5.204e-05,3.406e-05,4.812e-05
746,2.002e-05,2.704e-05,2.696e-05,3.108e-05,2.006e-05,1.8364e-05,1.149e-05,0,3.27e-05,5.228e-06,4.022e-05,3.168e-05,4.858e-05,6.3e-05,4.584e-05,4.574e-05,5.218e-05,4.474e-05,5.876e-05,6.454e-05,2.282e-05,2.032e-05,1.5782e-05,1.6444e-05,2.158e-05,2.76e-05,1.9666e-05,2.434e-05,1.6898e-05,1.5708e-05,2.49e-05,3.188e-05,3.576e-05,4.496e-05,4.24e-05,4.834e-05,2.862e-05,4.686e-05,2.562e-05,5.624e-05
748,1.8706e-05,2.676e-05,2.49e-05,2.726e-05,1.3304e-05,1.6694e-05,1.0222e-05,4.17e-06,2.702e-05,0,3.342e-05,1.9356e-05,4.1e-05,5.886e-05,4.674e-05,4.412e-05,4.298e-05,5.038e-05,5.716e-05,5.894e-05,2.112e-05,1.7338e-05,1.6446e-05,1.4948e-05,1.6856e-05,2.33e-05,1.7888e-05,2.256e-05,1.4878e-05,1.6618e-05,1.516e-05,2.42e-05,3.336e-05,3.844e-05,4.562e-05,4.644e-05,2.904e-05,5.886e-05,2.558e-05,4.306e-05
750,1.6076e-05,2.518e-05,2.5e-05,2.42e-05,9.818e-06,7.97e-06,3.48e-06,2.58e-06,2.206e-05,0,3.364e-05,2.434e-05,3.526e-05,5.774e-05,4.076e-05,4.848e-05,4.008e-05,4.674e-05,5.262e-05,4.234e-05,1.7974e-05,1.0948e-05,1.8718e-05,1.3022e-05,1.723e-05,2.042e-05,2.052e-05,2.098e-05,1.4474e-05,1.365e-05,2e-05,3.048e-05,3.344e-05,4.012e-05,4.324e-05,4.43e-05,3.388e-05,4.906e-05,2.532e-05,4.028e-05
752,1.0428e-05,3.09e-05,2.316e-05,1.5386e-05,2.002e-05,3.354e-06,9.984e-06,7.7e-07,2.238e-05,0,3.84e-05,3.086e-05,3.01e-05,5.978e-05,3.83e-05,4.06e-05,4.28e-05,4.838e-05,5.022e-05,4.986e-05,2.074e-05,1.4284e-05,1.5144e-05,1.212e-05,1.9092e-05,1.9736e-05,1.7646e-05,2.086e-05,1.3392e-05,1.0018e-05,1.6172e-05,2.534e-05,3.098e-05,5.188e-05,4.918e-05,5.492e-05,3.146e-05,3.07e-05,1.9252e-05,2.8e-05
754,8.592e-06,4.386e-05,2.868e-05,2.06e-05,2.228e-05,0,1.2698e-05,8.724e-06,1.9228e-05,0,3.49e-05,2.782e-05,2.57e-05,5.548e-05,4.782e-05,5.018e-05,3.36e-05,4.082e-05,5.466e-05,5.66e-05,2.11e-05,1.425e-05,1.817e-05,9.94e-06,1.5766e-05,2.15e-05,1.68e-05,1.499e-05,1.1056e-05,1.0084e-05,1.3346e-05,2.144e-05,3.09e-05,4.438e-05,5.796e-05,5.548e-05,2.728e-05,6.234e-05,3.052e-05,3.316e-05
756,1.6496e-05,2.664e-05,2.596e-05,1.923e-05,2.226e-05,0,9.67e-06,3.866e-06,1.7754e-05,0,4.28e-05,3.272e-05,2.684e-05,6.51e-05,4.994e-05,5.102e-05,3.37e-05,4.086e-05,4.348e-05,3.906e-05,2.3e-05,1.2978e-05,1.765e-05,1.232e-05,1.7294e-05,2.172e-05,1.7124e-05,2.088e-05,1.24e-05,1.069e-05,1.1296e-05,2.682e-05,3.452e-05,4.578e-05,5.666e-05,5.144e-05,3.556e-05,5.49e-05,4.118e-05,3.602e-05
758,1.6132e-05,3.714e-05,1.2878e-05,1.6122e-05,3.244e-05,2.648e-06,1.9174e-05,3.422e-06,2.112e-05,0,3.698e-05,3.048e-05,2.134e-05,5.814e-05,5.536e-05,5.21e-05,2.442e-05,4.738e-05,3.82e-05,4.512e-05,2.266e-05,1.5368e-05,1.477e-05,1.143e-05,1.6742e-05,2.324e-05,1.6654e-05,2.262e-05,1.3368e-05,9.872e-06,8.74e-06,4.014e-05,2.756e-05,3.926e-05,3.958e-05,5.646e-05,2.4e-05,4.962e-05,4.4e-05,2.948e-05
760,2.764e-05,4.106e-05,3.028e-05,1.628e-05,4.152e-05,5.676e-07,7.994e-06,1.278e-05,1.3342e-05,0,3.37e-05,3.222e-05,2.204e-05,6.068e-05,4.508e-05,4.848e-05,2.376e-05,3.732e-05,4.094e-05,3.738e-05,2.668e-05,1.4186e-05,1.6574e-05,1.4356e-05,1.6342e-05,2.004e-05,1.4282e-05,2.52e-05,1.7272e-05,1.1536e-05,1.6178e-05,4.294e-05,3.104e-05,4.996e-05,5.944e-05,5.884e-05,4.384e-05,4.482e-05,4.4e-05,2.646e-05
762,2.084e-05,3.528e-05,3.048e-05,2.672e-05,4.326e-05,2.77e-06,1.7484e-05,1.8308e-05,9.85e-06,2.758e-06,3.652e-05,5.936e-05,1.3238e-05,5.714e-05,5.37e-05,5.39e-05,2.868e-05,3.714e-05,3.928e-05,3.67e-05,2.494e-05,9.812e-06,1.891e-05,9.602e-06,1.9092e-05,2.23e-05,1.8552e-05,2.144e-05,1.2758e-05,1.2586e-05,4.846e-06,6.578e-05,4.986e-05,6.37e-05,6.194e-05,5.162e-05,4.694e-05,5.77e-05,3.588e-05,4.2e-05
764,2.618e-05,2.54e-05,3.258e-05,2.562e-05,3.92e-05,6.3e-06,1.9326e-05,8.572e-06,1.5778e-05,1.5216e-05,3.454e-05,6.368e-05,1.1102e-05,5.672e-05,5.782e-05,5.33e-05,2.446e-05,4.016e-05,4.266e-05,3.552e-05,2.59e-05,1.7304e-05,1.8056e-05,8.528e-06,2.038e-05,2.216e-05,1.878e-05,1.8822e-05,1.1652e-05,9.978e-06,1.312e-05,5.758e-05,5.218e-05,5.478e-05,6.662e-05,4.786e-05,5.356e-05,6.038e-05,5.722e-05,4.936e-05
766,3.066e-05,4.122e-05,2.832e-05,3.27e-05,4.55e-05,0,2.468e-05,1.64e-05,2.382e-05,3.242e-05,3.62e-05,6.372e-05,1.2288e-05,5.09e-05,4.82e-05,6.424e-05,1.7312e-05,3.582e-05,3.504e-05,2.298e-05,3.242e-05,1.7016e-05,1.7938e-05,1.473e-05,1.8608e-05,2.482e-05,1.9958e-05,2.222e-05,1.4896e-05,1.1426e-05,8.538e-06,5.648e-05,5.668e-05,5.526e-05,5.888e-05,6.416e-05,6.218e-05,5.514e-05,4.702e-05,1.582e-05
768,3.73e-05,4.32e-05,3.71e-05,3.856e-05,3.822e-05,0,2.816e-05,3.82e-05,2.124e-05,2.812e-05,4.456e-05,6.634e-05,8.046e-06,4.752e-05,4.986e-05,8.094e-05,1.868e-05,1.7958e-05,3.018e-05,5.114e-05,2.618e-05,1.5756e-05,2.042e-05,1.3256e-05,1.6488e-05,2.034e-05,1.7126e-05,2.448e-05,1.536e-05,1.3152e-05,1.0058e-06,6.382e-05,5.806e-05,6.928e-05,6.052e-05,6.552e-05,7.868e-05,5.838e-05,7.572e-05,3.744e-05
770,3.328e-05,3.622e-05,2.692e-05,2.614e-05,3.904e-05,0,4.122e-05,3.732e-05,2.108e-05,4.216e-05,3.874e-05,6.526e-05,7.428e-06,4.804e-05,4.358e-05,6.852e-05,9.156e-06,3.182e-05,1.7832e-05,3.498e-05,2.214e-05,1.1564e-05,1.7852e-05,1.0114e-05,2.092e-05,2.264e-05,1.8588e-05,1.9854e-05,1.9376e-05,1.299e-05,1.5382e-05,6.73e-05,6.158e-05,4.456e-05,5.962e-05,5.306e-05,6.254e-05,4.846e-05,7.17e-05,2.99e-05
772,5.886e-05,4.196e-05,2.424e-05,1.557e-05,5.56e-05,3.61e-06,3.542e-05,5.352e-05,2.104e-05,4.912e-05,3.868e-05,9.058e-05,9.296e-06,5.206e-05,5.202e-05,7.836e-05,7.34e-06,2.642e-05,2.552e-05,3.098e-05,2.616e-05,1.0836e-05,1.8196e-05,1.286e-05,2.15e-05,1.8366e-05,2.086e-05,2.31e-05,1.6034e-05,1.6016e-05,3.58e-05,6.46e-05,6.266e-05,5.046e-05,6.856e-05,2.998e-05,8.912e-05,4.156e-05,7.67e-05,5.844e-05
774,4.762e-05,5.006e-05,3.296e-05,1.3284e-05,5.808e-05,5.108e-06,4.148e-05,5.026e-05,2.54e-05,6.89e-05,4.03e-05,6.512e-05,1.1104e-05,4.236e-05,5.932e-05,8.986e-05,4.27e-06,2.832e-05,1.661e-05,4.226e-05,2.526e-05,1.3226e-05,2.398e-05,1.4752e-05,1.993e-05,2.288e-05,2.308e-05,2.396e-05,2.044e-05,1.5638e-05,2.846e-05,6.648e-05,6.966e-05,5.862e-05,6.922e-05,3.562e-05,7.716e-05,5.274e-05,0.00010722,4.632e-05
776,4.98e-05,6.066e-05,3.292e-05,1.2852e-05,3.604e-05,1.3542e-05,4.716e-05,5.258e-05,2.734e-05,8.014e-05,3.484e-05,9.574e-05,9.312e-06,5.048e-05,5.156e-05,8.04e-05,2.428e-05,2.338e-05,2.712e-05,1.3248e-05,2.794e-05,1.2924e-05,2.46e-05,1.6092e-05,1.785e-05,2.286e-05,1.892e-05,1.4532e-05,2.256e-05,2.248e-05,6.632e-05,9.412e-05,8.962e-05,5.728e-05,8.136e-05,7.516e-05,7.566e-05,5.706e-05,0.00012158,6.288e-05
778,5.426e-05,5.024e-05,4.32e-05,2.32e-05,3.786e-05,2.698e-05,6.492e-05,5.66e-05,4.304e-05,8.666e-05,5.114e-05,8.848e-05,1.2554e-05,5.882e-05,5.724e-05,8.362e-05,3.66e-06,1.2382e-05,2.59e-05,2.578e-05,2.71e-05,1.5242e-05,2.242e-05,1.6112e-05,2.144e-05,1.8072e-05,2.704e-05,1.9776e-05,1.7506e-05,2.114e-05,4.722e-05,0.00011604,8.784e-05,4.796e-05,6.56e-05,6.05e-05,7.972e-05,5.246e-05,0.00010476,8.508e-05
780,6.208e-05,4.434e-05,4.942e-05,2.998e-05,3.094e-05,3.7e-05,8.422e-05,7.872e-05,4.192e-05,0.00011112,6.448e-05,8.908e-05,2.62e-05,3.526e-05,5.744e-05,7.972e-05,6.894e-06,8.3e-06,2.49e-05,1.7254e-05,2.508e-05,2.128e-05,1.9206e-05,1.7302e-05,1.6432e-05,2.34e-05,2.266e-05,1.6984e-05,3.022e-05,2.392e-05,4.372e-05,0.00012686,0.00011346,5.088e-05,7.388e-05,6.356e-05,9.842e-05,5.462e-05,0.00012248,9.872e-05
