Wavelength [nm],Background (Mel),Modulation (Mel),Background (LMS),Modulation (LMS)380,5.802e-06,5.832e-06,1.1146e-07,9.096e-06,8.142e-06,9.882e-06,1.0986e-05,7.502e-06,1.167e-05,1.235e-05,1.0988e-05,1.257e-05,1.2274e-05,7.702e-06,1.0536e-05,1.097e-05,9.43e-06,9.368e-06,1.4466e-05,1.2432e-05,3.572e-06,1.937e-06,2.578e-06,3.636e-06,4.6e-06,5.794e-06,3.578e-06,5.35e-06,6.536e-06,5.766e-06,1.3778e-05,1.4232e-05,3.12e-05,1.063e-05,1.9756e-05,2.122e-05,2.156e-05,1.836e-05,2.09e-05,2.36e-05
382,1.1116e-05,6.844e-07,1.5468e-06,1.3422e-05,6.942e-06,8.804e-06,1.394e-05,7.338e-06,1.0678e-05,1.0784e-05,9.3e-06,1.1986e-05,1.1128e-05,8.162e-06,8.816e-06,1.159e-05,8.606e-06,6.11e-06,1.535e-05,1.1104e-05,2.762e-06,3.222e-06,2.57e-06,2.536e-06,5.016e-06,5.646e-06,5.502e-06,4.658e-06,4.59e-06,5.052e-06,1.5196e-05,1.4408e-05,2.932e-05,1.787e-05,2.39e-05,2.212e-05,2.666e-05,1.9638e-05,1.7202e-05,2.65e-05
384,1.1166e-05,0,1.0108e-06,7.372e-06,5.584e-06,1.118e-05,8.31e-06,7.934e-06,1.302e-05,1.169e-05,7.19e-06,1.193e-05,1.0526e-05,5.796e-06,9.93e-06,1.2386e-05,8.742e-06,6.288e-06,1.5804e-05,1.4026e-05,2.878e-06,1.7132e-06,1.933e-06,3.41e-06,4.23e-06,5.78e-06,5.016e-06,5.654e-06,5.476e-06,4.854e-06,1.915e-05,1.721e-05,2.828e-05,8.698e-06,1.7202e-05,1.88e-05,2.532e-05,1.9776e-05,1.874e-05,2.426e-05
386,9.628e-06,9.198e-07,2.888e-06,5.462e-06,6.72e-06,1.341e-05,7.804e-06,7.99e-06,1.6352e-05,1.072e-05,8.552e-06,9.802e-06,1.089e-05,6.204e-06,1.15e-05,1.2e-05,1.0102e-05,8.35e-06,1.2096e-05,1.2914e-05,3.234e-06,2.46e-06,3.008e-06,3.398e-06,4.378e-06,5.454e-06,4.004e-06,6.678e-06,4.944e-06,5.354e-06,1.8006e-05,1.613e-05,3.07e-05,5.734e-06,2.146e-05,1.5788e-05,2.188e-05,1.6386e-05,1.8534e-05,1.916e-05
388,8.446e-06,1.9356e-06,2.184e-06,5.474e-06,7.972e-06,1.0572e-05,6.814e-06,1.0504e-05,1.0586e-05,7.778e-06,9.644e-06,1.1284e-05,1.1516e-05,4.568e-06,1.2082e-05,1.1644e-05,8.264e-06,7.782e-06,1.1628e-05,1.168e-05,2.88e-06,2.602e-06,2.424e-06,2.976e-06,4.662e-06,4.962e-06,3.59e-06,5.85e-06,5.068e-06,4.982e-06,1.9506e-05,1.6288e-05,3.16e-05,6.252e-06,2.444e-05,1.6502e-05,2.158e-05,1.9146e-05,1.7652e-05,1.8324e-05
390,8.37e-06,5.952e-07,1.5328e-06,7.192e-06,4.062e-06,1.1652e-05,5.942e-06,9.686e-06,1.0324e-05,9.47e-06,9.014e-06,1.2492e-05,1.162e-05,7.626e-06,1.2742e-05,1.1082e-05,9.194e-06,8.446e-06,1.0674e-05,1.113e-05,3.226e-06,2.194e-06,2.43e-06,3.374e-06,4.962e-06,4.402e-06,5.094e-06,5.798e-06,4.636e-06,4.91e-06,1.7074e-05,1.5124e-05,3.034e-05,4.708e-06,2.006e-05,1.9678e-05,2.238e-05,1.3e-05,1.4518e-05,1.4376e-05
392,4.164e-06,2.672e-06,2.046e-06,1.647e-05,4.888e-06,1.2082e-05,2.876e-06,5.406e-06,9.772e-06,8.314e-06,7.778e-06,1.421e-05,1.249e-05,9.794e-06,1.1046e-05,7.136e-06,1.0662e-05,6.968e-06,1.1886e-05,1.0436e-05,2.79e-06,2.264e-06,2.984e-06,3.822e-06,3.894e-06,4.422e-06,4.326e-06,3.772e-06,4.7e-06,5.472e-06,1.8036e-05,1.8008e-05,2.894e-05,8.57e-06,1.756e-05,1.6542e-05,2.288e-05,1.6206e-05,1.6102e-05,1.7878e-05
394,4.892e-06,1.207e-06,3.812e-06,1.6802e-05,5.252e-06,1.211e-05,6.182e-06,4.628e-06,8.722e-06,7.942e-06,6.836e-06,1.2122e-05,1.4056e-05,6.064e-06,1.0774e-05,8.84e-06,7.502e-06,9.314e-06,1.185e-05,8.032e-06,3.878e-06,3.27e-06,3.54e-06,4.404e-06,3.456e-06,4.97e-06,4.268e-06,3.22e-06,5.952e-06,3.414e-06,1.9628e-05,1.7574e-05,2.774e-05,7.78e-06,1.6936e-05,1.3476e-05,2.458e-05,1.7652e-05,1.4898e-05,1.786e-05
396,1.576e-06,3.316e-06,1.9476e-06,1.0316e-05,1.9158e-06,8.28e-06,4.626e-06,8.312e-06,1.023e-05,9.5e-06,5.45e-06,1.3936e-05,1.4994e-05,7.494e-06,1.3646e-05,1.1612e-05,1.0476e-05,8.116e-06,1.12e-05,8.728e-06,4.524e-06,2.454e-06,3.82e-06,4.35e-06,3.944e-06,5.204e-06,4.014e-06,4.01e-06,3.506e-06,4.338e-06,2.148e-05,1.538e-05,2.698e-05,6.714e-06,1.4452e-05,1.2926e-05,1.7436e-05,1.5594e-05,2.006e-05,1.5016e-05
398,6.046e-07,2.356e-06,4.954e-06,1.0384e-05,3.968e-06,1.0606e-05,4.522e-06,2.644e-06,1.1942e-05,8.678e-06,7.092e-06,9.234e-06,1.2322e-05,1.0208e-05,1.0724e-05,9.618e-06,1.1826e-05,9.288e-06,7.272e-06,8.44e-06,4.44e-06,2.978e-06,3.014e-06,3.632e-06,2.86e-06,4.056e-06,3.29e-06,3.514e-06,3.12e-06,4.22e-06,2.53e-05,2.184e-05,2.648e-05,1.3714e-05,1.7294e-05,1.398e-05,1.707e-05,1.4596e-05,1.6912e-05,1.4642e-05
400,3.386e-06,1.2088e-06,2.31e-06,1.0872e-05,9.058e-06,1.0908e-05,4.62e-06,6.84e-06,8.444e-06,5.902e-06,6.372e-06,9.002e-06,1.4186e-05,8.6e-06,1.1852e-05,1.0142e-05,1.0342e-05,9.698e-06,7.102e-06,9.348e-06,4.442e-06,3.392e-06,3.244e-06,3.978e-06,3.696e-06,4.44e-06,4.342e-06,2.342e-06,2.646e-06,4.464e-06,2.076e-05,1.8024e-05,2.416e-05,1.0224e-05,1.614e-05,1.4172e-05,2.092e-05,1.7838e-05,1.7516e-05,1.1524e-05
402,4.042e-06,4.51e-06,4.242e-07,1.2572e-05,6.944e-06,9.662e-06,5.424e-06,5.308e-06,8.658e-06,7.246e-06,5.54e-06,1.0184e-05,1.375e-05,8.864e-06,8.766e-06,8.164e-06,8.264e-06,7.712e-06,7.528e-06,7.87e-06,3.818e-06,3.608e-06,3.498e-06,4.546e-06,3.26e-06,4.25e-06,4.402e-06,2.81e-06,2.998e-06,3.702e-06,2.038e-05,1.5244e-05,2.356e-05,7.9e-06,1.7718e-05,1.4254e-05,1.5238e-05,1.7074e-05,1.6366e-05,8.834e-06
404,5.352e-06,6.624e-06,7.034e-07,1.3228e-05,5.958e-06,8.942e-06,6.218e-06,5.576e-06,1.018e-05,8.486e-06,4.504e-06,1.0654e-05,1.4224e-05,7.26e-06,8.682e-06,7.78e-06,8.362e-06,8.544e-06,7.322e-06,6.614e-06,3.56e-06,3.418e-06,4.07e-06,4.72e-06,3.042e-06,4.946e-06,4.246e-06,3.348e-06,3.204e-06,3.362e-06,1.6534e-05,1.689e-05,2.2e-05,1.103e-05,1.6362e-05,1.5956e-05,1.6018e-05,1.7354e-05,1.5832e-05,9.776e-06
406,5.068e-06,4.718e-06,3.388e-06,1.3312e-05,5.362e-06,8.662e-06,1.6722e-06,6.344e-06,7.586e-06,5.59e-06,6.048e-06,9.164e-06,1.381e-05,5.876e-06,8.594e-06,6.876e-06,7.95e-06,9.794e-06,5.926e-06,3.18e-06,2.928e-06,3.986e-06,3.658e-06,4.528e-06,2.966e-06,4.474e-06,3.63e-06,3.134e-06,2.818e-06,3.754e-06,1.699e-05,1.7036e-05,2.016e-05,5.62e-06,1.945e-05,1.4256e-05,1.7924e-05,1.5496e-05,1.4456e-05,1.1296e-05
408,1.172e-06,7.206e-06,2.52e-06,1.0018e-05,6.596e-06,9.262e-06,4.102e-06,5.224e-06,5.586e-06,4.684e-06,6.406e-06,8.62e-06,1.344e-05,7.152e-06,1.0408e-05,9.302e-06,9.156e-06,1.0906e-05,7.212e-06,3.31e-06,2.998e-06,3.702e-06,4.042e-06,3.576e-06,2.78e-06,3.286e-06,4.146e-06,3.358e-06,2.17e-06,3.476e-06,1.1432e-05,1.8146e-05,1.822e-05,8.124e-06,1.8546e-05,1.3406e-05,1.48e-05,1.7938e-05,1.5894e-05,1.496e-05
410,2.872e-06,5.236e-06,7.526e-06,1.0446e-05,6.758e-06,8.258e-06,5.866e-06,6.162e-06,1.032e-05,5.452e-06,7.126e-06,7.988e-06,8.902e-06,8.71e-06,1.0088e-05,8.586e-06,8.226e-06,9.276e-06,6.192e-06,4.842e-06,3.624e-06,3.676e-06,3.774e-06,3.868e-06,2.57e-06,2.834e-06,4.4e-06,2.78e-06,3.058e-06,3.466e-06,1.0544e-05,2.326e-05,1.6012e-05,1.0056e-05,1.8966e-05,1.0198e-05,1.2118e-05,1.6446e-05,1.473e-05,1.4654e-05
412,6.376e-06,6.556e-06,8.534e-06,1.3004e-05,7.648e-06,1.3866e-05,8.446e-06,1.0182e-05,1.1248e-05,6.54e-06,6.862e-06,9.75e-06,1.2e-05,9.22e-06,8.924e-06,8.298e-06,7.342e-06,1.1142e-05,6.592e-06,4.784e-06,2.768e-06,4e-06,3.902e-06,4.248e-06,2.852e-06,3.768e-06,4.106e-06,3.134e-06,3.044e-06,2.694e-06,1.5828e-05,1.9064e-05,1.4198e-05,6.966e-06,1.5734e-05,1.6102e-05,1.3434e-05,1.8982e-05,1.533e-05,1.295e-05
414,8.69e-06,8.8e-06,9.67e-06,1.7594e-05,1.2624e-05,1.3086e-05,9.442e-06,1.2106e-05,1.1364e-05,8.632e-06,8.916e-06,9.762e-06,1.315e-05,8.41e-06,9.31e-06,8.274e-06,8.056e-06,1.1494e-05,6.552e-06,5.226e-06,3.31e-06,3.178e-06,3.936e-06,3.988e-06,3.256e-06,3.528e-06,4.402e-06,3.614e-06,2.636e-06,2.398e-06,1.6824e-05,2.514e-05,2.438e-05,1.7376e-05,2.172e-05,1.9644e-05,1.9462e-05,2.488e-05,2.446e-05,1.955e-05
416,2.172e-05,2.382e-05,2.272e-05,2.74e-05,2.39e-05,2.636e-05,2.158e-05,2.326e-05,2.474e-05,2.088e-05,1.2338e-05,1.1522e-05,1.6218e-05,1.4696e-05,1.3052e-05,1.0086e-05,1.264e-05,1.4194e-05,1.0364e-05,9.138e-06,3.788e-06,5.052e-06,4.842e-06,4.352e-06,3.878e-06,4.55e-06,5.206e-06,3.392e-06,2.884e-06,2.698e-06,3.632e-05,3.906e-05,3.714e-05,3.516e-05,4.176e-05,3.396e-05,3.262e-05,3.812e-05,3.792e-05,3.304e-05
418,5.398e-05,5.48e-05,5.452e-05,5.976e-05,5.562e-05,5.556e-05,5.2e-05,5.44e-05,5.392e-05,4.862e-05,2.102e-05,2.014e-05,2.284e-05,2.152e-05,2.178e-05,1.8848e-05,1.9764e-05,2.106e-05,1.8114e-05,1.6636e-05,5.222e-06,6.03e-06,5.9e-06,6.25e-06,5.532e-06,5.248e-06,5.91e-06,4.55e-06,4.48e-06,4.432e-06,8.044e-05,8.38e-05,7.46e-05,7.896e-05,8.308e-05,7.596e-05,7.404e-05,7.812e-05,7.858e-05,7.542e-05
420,0.0001077,0.0001099,0.00011186,0.00011448,0.00011082,0.00010814,0.00010554,0.00010774,0.0001084,0.00010462,3.526e-05,3.584e-05,3.594e-05,3.662e-05,3.484e-05,3.37e-05,3.294e-05,3.514e-05,3.282e-05,3.074e-05,7.522e-06,8.184e-06,8.544e-06,8.962e-06,8.288e-06,7.444e-06,8.298e-06,7.354e-06,6.812e-06,7.266e-06,0.00015106,0.00015902,0.00015086,0.00015418,0.00015452,0.00014952,0.00014416,0.00014734,0.00014972,0.00014568
422,0.00018192,0.0001808,0.0001824,0.0001851,0.0001796,0.0001779,0.00017692,0.00017824,0.0001783,0.00017584,5.408e-05,5.33e-05,5.432e-05,5.566e-05,5.366e-05,5.026e-05,5.09e-05,5.276e-05,4.97e-05,4.976e-05,1.098e-05,1.1644e-05,1.1646e-05,1.2356e-05,1.1128e-05,1.168e-05,1.1324e-05,1.0786e-05,1.012e-05,1.0954e-05,0.0002568,0.0002624,0.0002564,0.0002586,0.0002582,0.0002474,0.0002468,0.000249,0.000251,0.0002476
424,0.0002506,0.0002534,0.0002542,0.0002586,0.0002532,0.000252,0.0002488,0.0002498,0.0002488,0.0002474,7.28e-05,7.168e-05,7.19e-05,7.322e-05,7.154e-05,6.964e-05,6.93e-05,7.176e-05,6.952e-05,6.844e-05,1.4746e-05,1.6352e-05,1.5852e-05,1.6112e-05,1.5466e-05,1.6394e-05,1.5428e-05,1.5814e-05,1.4454e-05,1.498e-05,0.0003912,0.0003922,0.000388,0.000391,0.0003924,0.0003818,0.0003794,0.0003812,0.0003826,0.0003796
426,0.0003188,0.0003226,0.0003218,0.0003234,0.0003204,0.0003174,0.0003142,0.0003168,0.0003164,0.0003138,9.156e-05,8.968e-05,9.074e-05,9.036e-05,9.05e-05,8.75e-05,8.75e-05,9.05e-05,8.706e-05,8.612e-05,2.064e-05,2.192e-05,2.082e-05,2.198e-05,2.056e-05,2.17e-05,2.098e-05,2.136e-05,2.096e-05,2.03e-05,0.000564,0.0005662,0.0005614,0.0005672,0.000564,0.0005488,0.0005482,0.0005572,0.0005542,0.0005502
428,0.0003806,0.000379,0.0003796,0.00038,0.0003784,0.0003768,0.000375,0.0003764,0.0003774,0.0003746,0.00010888,0.00010474,0.00010618,0.00010772,0.00010646,0.00010348,0.00010452,0.00010548,0.00010486,0.0001034,2.794e-05,2.83e-05,2.74e-05,2.816e-05,2.718e-05,2.806e-05,2.736e-05,2.782e-05,2.696e-05,2.744e-05,0.0007614,0.0007658,0.0007588,0.0007672,0.0007634,0.0007478,0.0007456,0.0007502,0.000752,0.0007484
430,0.0004238,0.0004264,0.0004268,0.0004256,0.000426,0.0004258,0.0004232,0.0004272,0.0004234,0.0004196,0.00012028,0.0001177,0.00012004,0.00012062,0.00011894,0.00011888,0.00011726,0.00011884,0.00011884,0.00011682,3.34e-05,3.426e-05,3.324e-05,3.434e-05,3.302e-05,3.414e-05,3.352e-05,3.36e-05,3.316e-05,3.288e-05,0.0009396,0.0009432,0.0009358,0.0009458,0.0009396,0.0009312,0.0009296,0.0009306,0.0009304,0.0009316
432,0.0004482,0.0004498,0.0004502,0.0004502,0.0004492,0.0004542,0.000451,0.0004546,0.0004508,0.0004478,0.00012862,0.000125,0.00012746,0.00012776,0.00012628,0.00012672,0.00012566,0.00012822,0.0001267,0.00012616,3.83e-05,3.954e-05,3.82e-05,3.904e-05,3.83e-05,3.902e-05,3.868e-05,3.894e-05,3.86e-05,3.832e-05,0.0010606,0.0010644,0.0010594,0.0010676,0.0010626,0.001062,0.0010608,0.0010626,0.0010608,0.0010596
434,0.0004338,0.0004328,0.0004366,0.0004334,0.000433,0.0004422,0.0004398,0.0004418,0.0004392,0.0004372,0.00012588,0.00012422,0.0001247,0.0001249,0.0001244,0.00012562,0.00012484,0.00012826,0.00012482,0.00012542,4.118e-05,4.25e-05,4.144e-05,4.166e-05,4.116e-05,4.208e-05,4.184e-05,4.18e-05,4.178e-05,4.17e-05,0.0011086,0.0011106,0.0011052,0.0011154,0.0011104,0.0011166,0.0011154,0.0011156,0.0011158,0.001116
436,0.0003666,0.000364,0.0003688,0.0003656,0.000367,0.000379,0.0003748,0.0003774,0.000375,0.0003742,0.0001085,0.00010856,0.00010856,0.00010956,0.00010726,0.00011114,0.00010906,0.00011232,0.00010958,0.00011092,4.172e-05,4.302e-05,4.178e-05,4.15e-05,4.198e-05,4.238e-05,4.264e-05,4.288e-05,4.212e-05,4.256e-05,0.0010754,0.0010756,0.0010704,0.001081,0.001076,0.0010892,0.0010866,0.0010872,0.0010888,0.0010896
438,0.000262,0.0002588,0.0002624,0.0002612,0.0002608,0.000274,0.0002718,0.0002738,0.0002726,0.0002706,8.38e-05,8.196e-05,8.228e-05,8.414e-05,8.1e-05,8.564e-05,8.456e-05,8.696e-05,8.512e-05,8.638e-05,4.024e-05,4.156e-05,4.02e-05,4.034e-05,4.06e-05,4.112e-05,4.114e-05,4.168e-05,4.082e-05,4.092e-05,0.0009766,0.000978,0.0009748,0.0009834,0.00098,0.000997,0.0009948,0.0009986,0.0009964,0.0009974
440,0.0001513,0.0001503,0.00015102,0.00015342,0.00015126,0.0001621,0.0001616,0.00016426,0.00016114,0.00015918,5.858e-05,5.564e-05,5.664e-05,5.854e-05,5.692e-05,5.842e-05,5.904e-05,6.146e-05,5.888e-05,6.076e-05,3.816e-05,3.942e-05,3.826e-05,3.81e-05,3.82e-05,3.95e-05,3.886e-05,3.962e-05,3.932e-05,3.914e-05,0.0008226,0.000829,0.000825,0.0008318,0.0008272,0.0008464,0.0008452,0.0008484,0.0008498,0.0008486
442,8.354e-05,8.018e-05,8.334e-05,7.926e-05,8.338e-05,8.614e-05,8.472e-05,8.662e-05,8.572e-05,8.394e-05,4.34e-05,4.272e-05,4.112e-05,4.274e-05,4.126e-05,4.28e-05,4.244e-05,4.348e-05,4.19e-05,4.532e-05,3.498e-05,3.61e-05,3.56e-05,3.536e-05,3.582e-05,3.652e-05,3.67e-05,3.668e-05,3.644e-05,3.636e-05,0.000623,0.000625,0.0006214,0.0006298,0.0006274,0.0006498,0.0006468,0.000648,0.0006466,0.0006486
444,6.024e-05,5.614e-05,5.922e-05,5.776e-05,5.984e-05,6.078e-05,5.98e-05,6.19e-05,6.048e-05,5.798e-05,3.988e-05,3.828e-05,3.884e-05,4.04e-05,3.908e-05,4.024e-05,3.944e-05,4.022e-05,3.82e-05,4.15e-05,3.32e-05,3.43e-05,3.314e-05,3.35e-05,3.378e-05,3.486e-05,3.432e-05,3.466e-05,3.428e-05,3.418e-05,0.0004284,0.000432,0.0004282,0.0004384,0.0004314,0.0004534,0.0004492,0.0004518,0.0004502,0.0004538
446,5.61e-05,5.302e-05,5.606e-05,5.376e-05,5.648e-05,5.648e-05,5.476e-05,5.714e-05,5.512e-05,5.342e-05,4.084e-05,3.976e-05,4.022e-05,4.118e-05,3.99e-05,4.09e-05,3.892e-05,4.048e-05,3.908e-05,4.22e-05,3.258e-05,3.32e-05,3.242e-05,3.222e-05,3.254e-05,3.378e-05,3.302e-05,3.324e-05,3.342e-05,3.338e-05,0.000261,0.0002616,0.0002632,0.0002704,0.0002632,0.0002796,0.000277,0.0002778,0.000276,0.0002806
448,6.072e-05,5.652e-05,5.978e-05,5.604e-05,5.916e-05,5.848e-05,5.732e-05,5.884e-05,5.708e-05,5.642e-05,4.392e-05,4.282e-05,4.238e-05,4.332e-05,4.19e-05,4.36e-05,4.146e-05,4.442e-05,4.268e-05,4.466e-05,3.344e-05,3.426e-05,3.374e-05,3.354e-05,3.396e-05,3.434e-05,3.378e-05,3.406e-05,3.422e-05,3.4e-05,0.00015832,0.00015896,0.0001575,0.0001644,0.0001598,0.00016992,0.0001656,0.00016794,0.00016608,0.00017052
450,6.348e-05,6.054e-05,6.306e-05,6.03e-05,6.32e-05,6.26e-05,6.12e-05,6.212e-05,6.172e-05,6.144e-05,4.826e-05,4.732e-05,4.558e-05,4.808e-05,4.592e-05,4.794e-05,4.618e-05,4.714e-05,4.724e-05,4.77e-05,3.656e-05,3.708e-05,3.67e-05,3.684e-05,3.708e-05,3.672e-05,3.676e-05,3.716e-05,3.7e-05,3.696e-05,0.00012074,0.00012128,0.00011912,0.00012546,0.00012234,0.00012684,0.0001251,0.00012492,0.00012386,0.00012734
452,6.606e-05,6.326e-05,6.394e-05,6.326e-05,6.658e-05,6.672e-05,6.388e-05,6.416e-05,6.486e-05,6.458e-05,5.046e-05,4.9e-05,4.912e-05,5.006e-05,4.872e-05,4.926e-05,4.814e-05,4.918e-05,4.868e-05,4.95e-05,3.98e-05,3.986e-05,3.932e-05,3.936e-05,3.942e-05,3.948e-05,3.936e-05,4.026e-05,3.956e-05,3.936e-05,0.0001117,0.00011288,0.00011288,0.00011624,0.00011296,0.00011408,0.00011398,0.00011536,0.00011396,0.0001171
454,6.772e-05,6.328e-05,6.53e-05,6.182e-05,6.628e-05,6.504e-05,6.384e-05,6.298e-05,6.318e-05,6.436e-05,5.07e-05,4.946e-05,4.92e-05,5.118e-05,5.002e-05,5.078e-05,4.896e-05,5.036e-05,4.918e-05,5.084e-05,4.062e-05,4.126e-05,4.022e-05,4.026e-05,4.106e-05,4.09e-05,4.088e-05,4.132e-05,4.064e-05,4.058e-05,0.0001088,0.00011234,0.00010836,0.00011036,0.00011016,0.00011084,0.00010844,0.00011046,0.00011042,0.00011354
456,6.446e-05,6.222e-05,6.506e-05,6.34e-05,6.556e-05,6.6e-05,6.458e-05,6.388e-05,6.562e-05,6.586e-05,5.238e-05,5.17e-05,4.978e-05,5.16e-05,4.982e-05,5.09e-05,5.074e-05,5.098e-05,5.028e-05,5.264e-05,4.248e-05,4.276e-05,4.212e-05,4.228e-05,4.26e-05,4.35e-05,4.316e-05,4.318e-05,4.288e-05,4.284e-05,0.00010608,0.0001106,0.00010644,0.00011306,0.00010878,0.00010902,0.00010694,0.00011028,0.00010566,0.00011376
458,6.812e-05,6.534e-05,6.576e-05,6.662e-05,6.76e-05,6.624e-05,6.8e-05,6.506e-05,6.8e-05,6.688e-05,5.484e-05,5.444e-05,5.308e-05,5.528e-05,5.336e-05,5.394e-05,5.308e-05,5.332e-05,5.372e-05,5.436e-05,4.544e-05,4.562e-05,4.548e-05,4.49e-05,4.566e-05,4.544e-05,4.608e-05,4.56e-05,4.562e-05,4.594e-05,0.00011114,0.0001109,0.00011006,0.0001119,0.0001109,0.00011188,0.0001092,0.00011216,0.00010764,0.00011356
460,7.258e-05,6.862e-05,6.982e-05,6.826e-05,7.08e-05,6.922e-05,6.98e-05,6.572e-05,7.048e-05,6.982e-05,5.656e-05,5.694e-05,5.564e-05,5.71e-05,5.598e-05,5.722e-05,5.598e-05,5.586e-05,5.714e-05,5.668e-05,4.858e-05,4.856e-05,4.91e-05,4.804e-05,4.916e-05,4.826e-05,4.916e-05,4.86e-05,4.852e-05,4.86e-05,0.00011128,0.0001127,0.00011246,0.00011472,0.00011318,0.00011336,0.00011126,0.00011372,0.00010998,0.0001158
462,7.572e-05,7.144e-05,7.498e-05,7.104e-05,7.282e-05,7.286e-05,7.31e-05,6.932e-05,7.332e-05,7.298e-05,5.94e-05,6e-05,5.884e-05,5.994e-05,5.882e-05,6.07e-05,5.934e-05,5.932e-05,5.914e-05,6.004e-05,5.194e-05,5.146e-05,5.186e-05,5.12e-05,5.22e-05,5.212e-05,5.176e-05,5.236e-05,5.168e-05,5.216e-05,0.00010998,0.00011342,0.00011538,0.0001146,0.0001149,0.00011388,0.00011378,0.00011546,0.00011248,0.00011816
464,7.738e-05,7.338e-05,7.77e-05,7.502e-05,7.748e-05,7.648e-05,7.652e-05,7.386e-05,7.668e-05,7.628e-05,6.242e-05,6.272e-05,6.064e-05,6.314e-05,6.182e-05,6.356e-05,6.218e-05,6.308e-05,6.204e-05,6.318e-05,5.562e-05,5.472e-05,5.56e-05,5.492e-05,5.576e-05,5.626e-05,5.56e-05,5.558e-05,5.588e-05,5.652e-05,0.00011274,0.00011616,0.0001191,0.00011808,0.00011732,0.00011596,0.0001158,0.00011812,0.0001162,0.00012088
466,8.14e-05,7.89e-05,8.288e-05,7.978e-05,8.352e-05,8.122e-05,8.166e-05,7.906e-05,8.312e-05,8.306e-05,6.594e-05,6.772e-05,6.478e-05,6.698e-05,6.594e-05,6.766e-05,6.612e-05,6.524e-05,6.724e-05,6.6e-05,5.978e-05,5.946e-05,6.02e-05,6.028e-05,5.964e-05,5.974e-05,6.126e-05,6.042e-05,6.048e-05,6.058e-05,0.00011918,0.00011918,0.0001236,0.00012074,0.00012158,0.00012328,0.00012028,0.00012278,0.00012064,0.00012634
468,8.896e-05,8.542e-05,9.036e-05,8.666e-05,8.772e-05,8.852e-05,8.948e-05,8.428e-05,9.058e-05,8.942e-05,7.012e-05,7.228e-05,7.08e-05,7.134e-05,7.026e-05,7.284e-05,7.104e-05,7.154e-05,7.13e-05,7.108e-05,6.568e-05,6.562e-05,6.658e-05,6.56e-05,6.604e-05,6.564e-05,6.68e-05,6.668e-05,6.616e-05,6.68e-05,0.00012636,0.00012874,0.0001299,0.00012798,0.00012944,0.00012798,0.0001302,0.00013078,0.0001273,0.00013216
470,8.932e-05,8.752e-05,9.15e-05,8.552e-05,8.868e-05,8.984e-05,8.884e-05,8.644e-05,8.954e-05,9.046e-05,6.97e-05,7.21e-05,7.012e-05,7.204e-05,7.098e-05,7.144e-05,6.982e-05,6.972e-05,7.012e-05,7.036e-05,6.784e-05,6.754e-05,6.858e-05,6.75e-05,6.8e-05,6.798e-05,6.84e-05,6.796e-05,6.83e-05,6.82e-05,0.00012966,0.00012978,0.00013218,0.00012752,0.00012974,0.00012824,0.00012918,0.00012936,0.0001294,0.00013144
472,8.986e-05,8.664e-05,8.958e-05,8.484e-05,8.646e-05,8.834e-05,8.808e-05,8.502e-05,8.882e-05,8.888e-05,6.824e-05,7.12e-05,6.8e-05,6.896e-05,6.856e-05,7.09e-05,6.898e-05,6.892e-05,6.876e-05,6.914e-05,6.816e-05,6.86e-05,6.92e-05,6.818e-05,6.87e-05,6.826e-05,6.846e-05,6.846e-05,6.846e-05,6.832e-05,0.00012476,0.00012408,0.00013098,0.00012686,0.00012576,0.00012552,0.000125,0.00012656,0.00012496,0.00012848
474,8.778e-05,8.768e-05,8.99e-05,8.578e-05,8.592e-05,8.754e-05,8.66e-05,8.342e-05,8.826e-05,8.796e-05,6.56e-05,6.808e-05,6.55e-05,6.752e-05,6.724e-05,6.802e-05,6.714e-05,6.65e-05,6.672e-05,6.79e-05,6.892e-05,6.868e-05,6.942e-05,6.826e-05,6.894e-05,6.844e-05,6.924e-05,6.83e-05,6.836e-05,6.844e-05,0.00012206,0.000123,0.0001278,0.00012058,0.00012374,0.0001221,0.00012216,0.00012404,0.00012096,0.0001268
476,8.29e-05,8.244e-05,8.654e-05,7.908e-05,8.104e-05,8.392e-05,8.428e-05,8.01e-05,8.56e-05,8.44e-05,6.114e-05,6.334e-05,6.178e-05,6.258e-05,6.21e-05,6.27e-05,6.27e-05,6.274e-05,6.138e-05,6.382e-05,6.716e-05,6.67e-05,6.71e-05,6.644e-05,6.67e-05,6.642e-05,6.738e-05,6.704e-05,6.624e-05,6.64e-05,0.00011602,0.00011628,0.00012132,0.00011306,0.00011744,0.00011566,0.00011734,0.0001184,0.00011588,0.0001174
478,8.132e-05,8.288e-05,8.38e-05,7.886e-05,8.012e-05,8.17e-05,8.326e-05,7.96e-05,8.264e-05,8.452e-05,5.768e-05,6.212e-05,5.818e-05,5.896e-05,5.93e-05,6.014e-05,5.996e-05,5.944e-05,5.908e-05,6.14e-05,6.738e-05,6.65e-05,6.748e-05,6.628e-05,6.672e-05,6.658e-05,6.714e-05,6.646e-05,6.658e-05,6.632e-05,0.00011118,0.000112,0.00012218,0.00010928,0.00011386,0.00011136,0.00011372,0.000116,0.00011252,0.00011416
480,8.46e-05,8.38e-05,8.87e-05,8.168e-05,8.304e-05,8.424e-05,8.578e-05,8.318e-05,8.486e-05,8.736e-05,5.976e-05,6.244e-05,6.184e-05,5.976e-05,6.126e-05,6.136e-05,6.096e-05,6.094e-05,6.172e-05,6.05e-05,7.108e-05,7.016e-05,7.142e-05,7.044e-05,7.028e-05,7.054e-05,7.112e-05,7.054e-05,7.082e-05,7.066e-05,0.0001124,0.00011298,0.00012094,0.0001093,0.00011706,0.00011336,0.00011378,0.0001158,0.0001148,0.00011604
482,8.996e-05,8.992e-05,9.008e-05,8.674e-05,8.788e-05,8.912e-05,9.212e-05,8.732e-05,9.174e-05,8.962e-05,6.324e-05,6.472e-05,6.416e-05,6.406e-05,6.296e-05,6.384e-05,6.668e-05,6.342e-05,6.254e-05,6.324e-05,7.598e-05,7.568e-05,7.708e-05,7.616e-05,7.67e-05,7.646e-05,7.652e-05,7.64e-05,7.614e-05,7.58e-05,0.00012124,0.00011616,0.000126,0.0001112,0.00011896,0.00011822,0.00011794,0.000119,0.00011924,0.00011836
484,9.028e-05,9.202e-05,9.066e-05,8.786e-05,8.966e-05,8.934e-05,9.214e-05,8.768e-05,9.17e-05,9.086e-05,6.472e-05,6.736e-05,6.62e-05,6.806e-05,6.654e-05,6.502e-05,6.798e-05,6.658e-05,6.682e-05,6.584e-05,7.994e-05,7.96e-05,8.058e-05,7.988e-05,7.996e-05,7.994e-05,8.022e-05,8.008e-05,7.994e-05,7.954e-05,0.00011652,0.00011822,0.00012554,0.00011366,0.0001197,0.00011836,0.00011712,0.00011964,0.00011758,0.000119
486,8.856e-05,9.052e-05,9.086e-05,8.424e-05,8.94e-05,8.866e-05,8.94e-05,8.778e-05,8.97e-05,8.944e-05,7.428e-05,7.714e-05,7.544e-05,7.726e-05,7.554e-05,7.33e-05,7.594e-05,7.502e-05,7.456e-05,7.342e-05,8.418e-05,8.382e-05,8.456e-05,8.402e-05,8.358e-05,8.4e-05,8.384e-05,8.298e-05,8.372e-05,8.298e-05,0.000115,0.0001149,0.00012394,0.00011086,0.00011682,0.00011514,0.00011774,0.00011754,0.00011604,0.0001166
488,8.812e-05,9.088e-05,9.286e-05,8.68e-05,9.03e-05,8.83e-05,8.906e-05,8.808e-05,8.854e-05,8.938e-05,0.000116,0.00011882,0.00011734,0.0001167,0.00011626,0.00011016,0.00011326,0.0001102,0.00011012,0.00011126,0.0001018,0.0001015,0.00010224,0.00010178,0.00010128,9.916e-05,9.904e-05,9.832e-05,9.906e-05,9.794e-05,0.00012016,0.00011756,0.0001281,0.000114,0.00011956,0.0001175,0.00011914,0.00012034,0.00011802,0.00011816
490,9.302e-05,9.53e-05,9.524e-05,9.11e-05,9.512e-05,9.282e-05,9.382e-05,9.13e-05,9.354e-05,9.49e-05,0.0002638,0.0002662,0.0002654,0.000265,0.0002654,0.0002436,0.0002482,0.0002448,0.000245,0.0002452,0.00016906,0.00016886,0.00016926,0.00016844,0.00016916,0.00015948,0.00015906,0.00015856,0.00015954,0.0001589,0.00013182,0.00013126,0.00014124,0.00012602,0.0001358,0.0001317,0.00013068,0.0001336,0.00013068,0.00013206
492,0.0001001,0.00010206,0.0001015,9.9e-05,0.00010174,0.00010002,0.00010116,9.86e-05,0.00010118,0.00010086,0.0006334,0.0006314,0.0006338,0.0006302,0.0006324,0.0005858,0.00059,0.0005878,0.0005856,0.0005898,0.0003426,0.0003422,0.0003434,0.0003424,0.000342,0.0003196,0.0003198,0.0003192,0.00032,0.0003198,0.0001642,0.00016294,0.00016962,0.00015538,0.00016572,0.00016076,0.00015998,0.00016052,0.00016192,0.00015914
494,0.00010616,0.00010662,0.00010346,0.0001037,0.00010646,0.00010526,0.00010698,0.00010322,0.00010384,0.00010596,0.0012806,0.0012786,0.001279,0.001278,0.001281,0.0012112,0.0012178,0.001215,0.0012128,0.001215,0.0006536,0.0006526,0.0006534,0.0006528,0.0006522,0.0006188,0.0006178,0.0006182,0.0006194,0.0006178,0.0002098,0.000207,0.0002162,0.000206,0.000212,0.0002042,0.0002044,0.000202,0.0002048,0.000203
496,0.00011168,0.00011228,0.00011082,0.00011026,0.00011196,0.000109,0.00011092,0.00010818,0.00010896,0.0001103,0.001972,0.0019696,0.0019722,0.0019694,0.0019728,0.001898,0.0019046,0.0019002,0.0018966,0.0018986,0.0009664,0.000966,0.000966,0.0009658,0.000965,0.0009308,0.0009308,0.000931,0.0009312,0.000929,0.0002496,0.0002486,0.0002566,0.0002476,0.0002522,0.0002472,0.0002458,0.0002464,0.0002468,0.0002438
498,0.00012504,0.0001243,0.0001232,0.00012454,0.00012602,0.00012194,0.00012352,0.00012262,0.0001222,0.00012096,0.00264,0.002638,0.00264,0.002634,0.00264,0.002564,0.002572,0.002568,0.002564,0.002566,0.0012132,0.0012132,0.0012134,0.001213,0.0012122,0.001186,0.0011848,0.0011854,0.0011858,0.0011838,0.0002836,0.0002824,0.0002894,0.0002798,0.0002842,0.0002802,0.0002796,0.00028,0.00028,0.000279
500,0.00015386,0.0001535,0.0001507,0.0001486,0.00015444,0.00014804,0.00014908,0.00014902,0.00014766,0.00014784,0.00325,0.003248,0.003252,0.003248,0.003252,0.00318,0.003188,0.003186,0.00318,0.003186,0.0013736,0.0013732,0.0013738,0.0013736,0.001373,0.0013556,0.001355,0.0013562,0.001357,0.0013546,0.000304,0.0003038,0.0003086,0.0002996,0.0003056,0.0003034,0.0002998,0.0003036,0.0003032,0.0003012
502,0.0001861,0.00018524,0.00018254,0.0001824,0.0001877,0.00018004,0.00018038,0.00018288,0.00018152,0.00018074,0.003772,0.003768,0.003772,0.003768,0.003774,0.003708,0.003718,0.003718,0.003712,0.003718,0.0014648,0.001465,0.001465,0.0014654,0.0014642,0.0014544,0.0014536,0.0014554,0.0014564,0.0014548,0.000317,0.0003158,0.0003206,0.0003132,0.0003192,0.0003166,0.0003122,0.0003174,0.0003154,0.0003138
504,0.0002096,0.0002108,0.000209,0.0002102,0.0002128,0.0002072,0.0002072,0.0002102,0.00021,0.0002074,0.004148,0.004144,0.004148,0.004146,0.004152,0.0041,0.004112,0.004114,0.004108,0.004114,0.00151,0.0015098,0.0015102,0.001511,0.00151,0.001504,0.0015042,0.0015062,0.0015066,0.0015044,0.0003252,0.0003186,0.0003254,0.0003216,0.0003248,0.0003212,0.0003196,0.000323,0.0003208,0.00032
506,0.0002244,0.000226,0.0002244,0.0002252,0.0002278,0.0002236,0.0002242,0.0002246,0.0002222,0.0002226,0.004292,0.004288,0.004294,0.00429,0.004296,0.004276,0.004286,0.004288,0.00428,0.004284,0.0014968,0.0014976,0.0014976,0.0014984,0.0014974,0.001497,0.0014968,0.001499,0.0014984,0.001496,0.0003188,0.000317,0.0003192,0.0003126,0.000319,0.0003204,0.0003184,0.0003182,0.0003172,0.0003148
508,0.0002284,0.0002308,0.0002276,0.0002316,0.0002318,0.0002292,0.0002292,0.0002314,0.0002278,0.0002288,0.004098,0.004096,0.004102,0.004102,0.004102,0.004124,0.004128,0.00413,0.00412,0.004122,0.0013624,0.0013628,0.001363,0.001364,0.001363,0.0013758,0.001375,0.001376,0.001375,0.0013722,0.0002928,0.000292,0.0002936,0.0002886,0.0002938,0.0002948,0.0002922,0.0002934,0.0002924,0.0002916
510,0.0002316,0.0002326,0.00023,0.0002328,0.0002352,0.0002326,0.0002314,0.000232,0.0002312,0.0002302,0.003574,0.003574,0.00358,0.003578,0.00358,0.00363,0.003628,0.003632,0.003624,0.003624,0.0010754,0.0010764,0.001076,0.0010772,0.0010774,0.0011046,0.001103,0.001103,0.0011026,0.0011,0.0002522,0.0002508,0.0002524,0.0002474,0.0002522,0.0002554,0.0002518,0.0002542,0.0002508,0.000251
512,0.0002278,0.00023,0.0002272,0.0002296,0.0002328,0.0002294,0.0002274,0.0002294,0.0002276,0.0002276,0.002852,0.002852,0.002858,0.002856,0.002856,0.002912,0.00291,0.002914,0.002908,0.002908,0.0007032,0.0007042,0.0007038,0.0007056,0.0007054,0.0007372,0.0007356,0.0007362,0.000736,0.0007336,0.0002108,0.0002086,0.0002086,0.0002086,0.0002088,0.000212,0.0002086,0.000212,0.0002086,0.00021
514,0.0002128,0.0002142,0.000213,0.0002178,0.000216,0.0002148,0.000213,0.000216,0.0002126,0.0002136,0.002116,0.002116,0.00212,0.002118,0.00212,0.002164,0.002162,0.002166,0.002164,0.002164,0.000398,0.0003988,0.0003982,0.0003996,0.000399,0.0004208,0.0004194,0.00042,0.0004206,0.0004188,0.000183,0.00018174,0.00018128,0.00018252,0.00018292,0.00018342,0.0001813,0.00018452,0.00018232,0.00018422
516,0.0001856,0.00018794,0.00018662,0.00019114,0.00019028,0.00019016,0.00018714,0.00019054,0.00018556,0.00018842,0.0014708,0.0014698,0.0014728,0.0014724,0.001474,0.001506,0.0015048,0.0015124,0.0015086,0.0015094,0.000243,0.0002434,0.0002426,0.000244,0.0002434,0.0002518,0.000251,0.0002514,0.0002516,0.000251,0.00017562,0.00017298,0.00017194,0.0001701,0.0001747,0.00017372,0.0001701,0.00017352,0.00017318,0.00017216
518,0.0001576,0.00015988,0.00015806,0.00016154,0.0001597,0.0001597,0.00015764,0.00016058,0.00015636,0.00016004,0.0009094,0.000907,0.0009102,0.0009102,0.0009104,0.000939,0.0009392,0.000944,0.0009418,0.0009416,0.00019332,0.00019304,0.00019268,0.0001935,0.000193,0.00019448,0.00019416,0.00019494,0.0001948,0.00019454,0.00017186,0.00016862,0.00016938,0.00016672,0.0001704,0.00017218,0.0001683,0.00017138,0.00016918,0.00017162
520,0.00014348,0.00014516,0.0001413,0.00014588,0.0001454,0.0001436,0.00014416,0.0001455,0.00014236,0.00014572,0.000549,0.0005458,0.0005488,0.0005488,0.0005498,0.0005674,0.0005686,0.0005704,0.0005692,0.0005694,0.00018092,0.00018112,0.00018102,0.0001814,0.00018056,0.00018126,0.00018146,0.00018184,0.00018142,0.00018092,0.00017008,0.00016992,0.00016728,0.00016936,0.0001692,0.00016908,0.00016886,0.00017158,0.00016942,0.00017228
522,0.00013972,0.00014012,0.00013734,0.00014268,0.00014034,0.00013948,0.00013824,0.00014094,0.00013704,0.0001393,0.0003922,0.0003904,0.0003912,0.0003912,0.0003926,0.0004004,0.0004022,0.000402,0.0004,0.0004004,0.00017374,0.00017432,0.00017382,0.00017458,0.00017364,0.0001752,0.00017446,0.00017504,0.00017486,0.00017476,0.00016974,0.00016936,0.0001674,0.00016844,0.00016716,0.00016826,0.00016816,0.00017212,0.00016816,0.00017074
524,0.00013802,0.00013994,0.00013824,0.0001429,0.00013984,0.00013986,0.0001381,0.00014096,0.00013758,0.00014056,0.0003362,0.000334,0.0003354,0.0003342,0.0003368,0.0003388,0.0003396,0.0003402,0.0003398,0.0003388,0.00016718,0.0001673,0.00016676,0.0001682,0.00016716,0.00016848,0.00016788,0.00016838,0.00016854,0.00016838,0.0001665,0.0001662,0.00016442,0.00016642,0.00016552,0.00016716,0.00016456,0.000169,0.00016636,0.00016956
526,0.00013984,0.00014136,0.00014062,0.00014306,0.00014172,0.00014132,0.00014044,0.00014248,0.00013976,0.0001429,0.0003108,0.0003092,0.0003106,0.0003096,0.0003112,0.0003122,0.0003124,0.000314,0.0003128,0.0003134,0.00016172,0.00016224,0.0001613,0.0001627,0.00016168,0.00016226,0.00016206,0.00016242,0.00016284,0.000163,0.0001643,0.0001623,0.00016246,0.00016364,0.00016318,0.00016534,0.00016154,0.0001643,0.00016492,0.0001657
528,0.00014158,0.00014276,0.00014278,0.0001457,0.00014312,0.00014352,0.00014252,0.00014586,0.00014142,0.00014502,0.000292,0.0002904,0.0002918,0.0002906,0.0002924,0.0002908,0.0002922,0.0002942,0.0002922,0.0002938,0.00015656,0.00015666,0.00015608,0.00015704,0.00015626,0.00015652,0.00015642,0.00015748,0.00015714,0.00015742,0.00016128,0.00015898,0.00015598,0.00015772,0.00015882,0.00015946,0.000158,0.00016218,0.00016142,0.00016102
530,0.00014482,0.00014688,0.00014394,0.0001464,0.00014402,0.00014396,0.00014266,0.00014598,0.00014464,0.00014666,0.0002724,0.0002702,0.0002708,0.0002708,0.0002712,0.0002714,0.0002714,0.0002728,0.0002726,0.000273,0.00015118,0.00015126,0.00015068,0.00015208,0.00015092,0.000151,0.00015126,0.00015184,0.00015192,0.00015176,0.00015136,0.000153,0.00014796,0.00015058,0.0001514,0.00015174,0.00015286,0.00015484,0.00015298,0.0001558
532,0.00014502,0.00014678,0.00014488,0.0001475,0.00014592,0.00014556,0.00014524,0.0001474,0.00014544,0.0001472,0.000256,0.0002548,0.0002558,0.000255,0.0002556,0.0002544,0.0002556,0.0002572,0.0002554,0.0002566,0.00014872,0.00014862,0.00014836,0.00014986,0.00014816,0.0001484,0.00014828,0.00014872,0.0001488,0.00014916,0.00014622,0.0001471,0.00014346,0.00014618,0.00014626,0.00014486,0.00014502,0.0001481,0.00014798,0.00014948
534,0.00014582,0.00014766,0.00014474,0.00014842,0.000147,0.00014738,0.00014696,0.00014838,0.00014642,0.00014872,0.000242,0.0002414,0.0002418,0.0002414,0.0002416,0.0002416,0.0002416,0.0002426,0.000242,0.000243,0.00014694,0.00014702,0.0001466,0.00014752,0.00014684,0.00014664,0.00014674,0.00014708,0.00014678,0.00014682,0.0001426,0.0001414,0.00013962,0.0001408,0.00014176,0.00014056,0.0001394,0.00014256,0.00014116,0.00014294
536,0.0001449,0.00014756,0.0001457,0.0001489,0.00014682,0.00014732,0.0001472,0.00014792,0.00014674,0.00014742,0.0002298,0.0002292,0.0002302,0.0002288,0.0002294,0.0002292,0.0002296,0.0002306,0.000229,0.0002308,0.00014606,0.00014586,0.00014524,0.00014636,0.00014566,0.00014544,0.00014528,0.00014596,0.00014552,0.00014522,0.0001351,0.00013574,0.00013344,0.00013392,0.00013732,0.00013444,0.00013364,0.0001369,0.00013602,0.00013666
538,0.00014652,0.00014744,0.00014648,0.0001497,0.00014668,0.0001479,0.00014776,0.00014806,0.00014662,0.00014892,0.0002208,0.0002212,0.0002212,0.0002194,0.00022,0.0002206,0.0002194,0.0002208,0.0002188,0.0002218,0.00014502,0.00014502,0.000145,0.00014578,0.00014512,0.000145,0.00014474,0.0001454,0.00014468,0.00014506,0.0001314,0.00013304,0.00012924,0.00013152,0.0001324,0.0001312,0.00013052,0.0001326,0.00013304,0.00013276
540,0.00014546,0.00014756,0.00014496,0.00014694,0.00014598,0.00014766,0.00014544,0.00014686,0.00014678,0.00014804,0.0002142,0.0002146,0.000214,0.0002138,0.0002126,0.0002146,0.0002142,0.000214,0.0002124,0.0002148,0.00014504,0.00014528,0.00014486,0.00014632,0.00014526,0.00014538,0.00014472,0.00014596,0.00014494,0.000145,0.0001294,0.00013182,0.00012804,0.00013166,0.00013164,0.00012894,0.0001295,0.0001318,0.00013162,0.00012992
542,0.00014286,0.00014342,0.00014252,0.00014416,0.0001427,0.0001454,0.00014484,0.00014342,0.00014482,0.00014668,0.0002092,0.0002088,0.0002094,0.000208,0.0002068,0.0002082,0.0002078,0.000209,0.0002066,0.0002094,0.00014586,0.00014566,0.00014572,0.00014694,0.00014568,0.0001451,0.00014552,0.00014616,0.00014514,0.00014638,0.00012924,0.0001322,0.00012968,0.00013214,0.00013106,0.0001295,0.00012984,0.00013284,0.00013212,0.00013264
544,0.00013898,0.00014192,0.00014004,0.00014174,0.00014,0.00014176,0.00014194,0.0001413,0.00014286,0.00014232,0.0002056,0.000206,0.000206,0.0002054,0.0002054,0.0002056,0.0002052,0.0002054,0.000205,0.0002062,0.00014772,0.00014744,0.0001471,0.00014812,0.00014738,0.00014676,0.00014684,0.0001476,0.00014706,0.00014758,0.00013372,0.00013586,0.0001328,0.00013714,0.00013534,0.00013228,0.00013318,0.0001363,0.000136,0.00013608
546,0.00013544,0.00013516,0.00013364,0.00013502,0.00013498,0.0001368,0.00013616,0.00013562,0.00013698,0.00013766,0.000203,0.0002038,0.0002034,0.0002036,0.000203,0.0002028,0.0002032,0.0002028,0.0002016,0.000203,0.0001485,0.00014822,0.00014818,0.00014884,0.00014838,0.00014786,0.0001481,0.00014868,0.0001475,0.00014826,0.00013982,0.00014314,0.00013942,0.0001443,0.00014202,0.00013866,0.00013916,0.00014208,0.00014152,0.00014146
548,0.00012838,0.0001288,0.00012526,0.00012958,0.00012724,0.0001288,0.00013,0.00012754,0.00013036,0.00013018,0.0002014,0.000202,0.0002014,0.0002012,0.0002008,0.000201,0.0002014,0.0002008,0.00019958,0.0002004,0.00014978,0.00014928,0.00014928,0.00014994,0.00014938,0.00014886,0.00014882,0.00014958,0.00014862,0.000149,0.00014868,0.00015124,0.00014914,0.00015004,0.0001497,0.00014774,0.00014646,0.00014828,0.00014964,0.00014936
550,0.00012144,0.00012012,0.00011844,0.00012114,0.00012016,0.00012188,0.00012256,0.0001202,0.00012262,0.00012242,0.0002,0.000201,0.00019964,0.00019896,0.00019966,0.00019964,0.00019916,0.00019822,0.00019858,0.00019926,0.00015054,0.00015018,0.00015008,0.00015094,0.00015026,0.00015,0.00015012,0.0001508,0.00014886,0.00014956,0.00015824,0.00016154,0.00015856,0.00016048,0.00016072,0.00015768,0.0001585,0.0001576,0.00016082,0.00015962
552,0.00011394,0.00011522,0.00011308,0.00011426,0.00011192,0.00011696,0.00011572,0.00011294,0.00011688,0.00011756,0.00019828,0.0002004,0.00019832,0.00019832,0.00019854,0.00019936,0.00019892,0.00019782,0.00019732,0.00019928,0.0001508,0.00015084,0.00015092,0.00015158,0.00015098,0.00015066,0.000151,0.00015086,0.00015008,0.00015074,0.00017694,0.00018024,0.00017736,0.00018022,0.00017886,0.00017606,0.00017592,0.00017578,0.00017774,0.00017656
554,0.00010926,0.00010906,0.0001068,0.0001089,0.00010752,0.00010976,0.0001097,0.00010668,0.00011102,0.00011122,0.00019786,0.00019872,0.0001971,0.00019782,0.0001964,0.00019726,0.0001975,0.00019652,0.0001965,0.00019808,0.00015174,0.0001512,0.00015158,0.0001519,0.0001516,0.0001512,0.00015114,0.00015158,0.00015074,0.00015186,0.0002408,0.0002404,0.0002386,0.0002412,0.0002402,0.0002316,0.0002312,0.000231,0.0002332,0.0002318
556,0.00010646,0.0001057,0.00010534,0.00010606,0.00010534,0.00010628,0.00010698,0.0001041,0.00010838,0.0001074,0.00019726,0.00019864,0.00019778,0.00019642,0.00019706,0.00019708,0.00019778,0.00019672,0.00019656,0.0001976,0.00015172,0.00015168,0.00015178,0.00015206,0.00015234,0.00015164,0.00015184,0.0001527,0.00015146,0.00015232,0.000415,0.0004152,0.0004146,0.0004162,0.0004144,0.0003908,0.000391,0.0003902,0.0003952,0.0003924
558,0.00010608,0.00010526,0.00010598,0.00010608,0.00010568,0.0001057,0.00010632,0.00010258,0.00010694,0.0001078,0.0001973,0.00019768,0.00019786,0.00019704,0.00019758,0.00019758,0.00019774,0.00019676,0.00019608,0.00019784,0.00015202,0.00015208,0.0001524,0.0001523,0.00015268,0.00015182,0.0001521,0.00015322,0.000152,0.00015278,0.0007752,0.0007764,0.000775,0.0007764,0.0007728,0.0007308,0.000732,0.000732,0.0007352,0.0007316
560,0.00010938,0.0001076,0.00010786,0.00010908,0.0001095,0.00010732,0.00010866,0.00010558,0.00010992,0.00010894,0.00019722,0.0001985,0.0001978,0.00019732,0.00019774,0.0001981,0.00019752,0.00019666,0.00019612,0.00019822,0.00015254,0.0001528,0.00015302,0.00015268,0.0001531,0.00015258,0.0001527,0.00015338,0.00015238,0.00015264,0.0013348,0.0013362,0.0013324,0.0013326,0.001326,0.0012618,0.001266,0.0012644,0.0012688,0.0012622
562,0.00011664,0.00011506,0.00011516,0.00011506,0.00011622,0.00011374,0.00011428,0.00011204,0.0001153,0.00011492,0.0001967,0.00019832,0.00019736,0.00019638,0.00019728,0.00019726,0.0001977,0.00019686,0.00019646,0.00019724,0.00015292,0.00015288,0.00015358,0.00015246,0.00015334,0.00015242,0.00015278,0.00015294,0.00015184,0.00015208,0.002102,0.0021,0.002094,0.002098,0.002084,0.0019952,0.0019956,0.001995,0.0019976,0.0019888
564,0.0001378,0.00013714,0.00013832,0.0001363,0.00013808,0.00013328,0.00013352,0.00013192,0.00013468,0.00013498,0.00019382,0.0001961,0.00019434,0.00019546,0.00019464,0.00019486,0.00019526,0.00019368,0.00019356,0.00019354,0.00015192,0.00015202,0.00015296,0.00015162,0.00015216,0.00015132,0.0001514,0.00015154,0.00015054,0.00015068,0.003212,0.003216,0.003198,0.00321,0.003174,0.00306,0.003058,0.003054,0.003054,0.003044
566,0.0002174,0.000218,0.000218,0.0002162,0.0002186,0.0002048,0.0002052,0.0002022,0.0002064,0.0002066,0.00019178,0.00019366,0.00019236,0.00019218,0.00019214,0.0001912,0.00019184,0.00019148,0.0001907,0.0001912,0.00015066,0.00015062,0.00015122,0.00015056,0.00015112,0.00015046,0.00015026,0.0001504,0.00014914,0.00014952,0.004424,0.00443,0.004398,0.004424,0.004346,0.004216,0.004214,0.004208,0.004208,0.004198
568,0.000444,0.000445,0.0004472,0.0004452,0.0004448,0.000414,0.0004136,0.0004114,0.0004152,0.0004156,0.00018844,0.0001901,0.00018854,0.00018814,0.00018846,0.00018848,0.00018864,0.000188,0.00018688,0.00018758,0.00014894,0.00014868,0.0001492,0.00014868,0.00014958,0.0001488,0.00014928,0.0001484,0.00014772,0.00014798,0.005662,0.005668,0.005618,0.005664,0.00553,0.005398,0.005396,0.005388,0.005392,0.00538
570,0.0008812,0.000884,0.0008854,0.000882,0.0008804,0.0008292,0.0008312,0.0008296,0.0008322,0.0008332,0.00018336,0.00018424,0.00018276,0.00018402,0.00018414,0.00018386,0.0001836,0.00018316,0.0001829,0.00018244,0.00014646,0.0001468,0.00014684,0.00014604,0.00014684,0.00014642,0.00014644,0.00014648,0.00014576,0.00014576,0.006872,0.006886,0.006808,0.006876,0.006682,0.00656,0.00656,0.006554,0.00656,0.006552
572,0.0015274,0.0015296,0.0015308,0.0015262,0.0015212,0.0014518,0.001456,0.0014558,0.0014582,0.0014606,0.00017682,0.00017784,0.00017816,0.00017842,0.00017874,0.00017954,0.00017888,0.00017922,0.00017864,0.00017842,0.00014364,0.00014388,0.0001441,0.00014334,0.00014394,0.00014422,0.00014474,0.00014448,0.00014362,0.0001439,0.007988,0.008006,0.007904,0.007992,0.007738,0.007638,0.007648,0.007642,0.00765,0.007638
574,0.00243,0.002432,0.002438,0.002438,0.00241,0.002326,0.00233,0.002332,0.002336,0.002336,0.00017574,0.00017698,0.0001771,0.00017678,0.0001763,0.00017702,0.00017852,0.0001774,0.00017866,0.0001779,0.00014084,0.000141,0.00014198,0.00014028,0.00014134,0.00014144,0.0001422,0.00014204,0.00014152,0.00014222,0.008968,0.00899,0.00888,0.008978,0.008676,0.00861,0.008622,0.008618,0.008622,0.00861
576,0.00358,0.003582,0.003596,0.003598,0.003532,0.00343,0.003438,0.003442,0.003444,0.003444,0.0001838,0.00018382,0.00018362,0.0001835,0.00018236,0.00018432,0.00018536,0.00018506,0.0001848,0.00018428,0.00014092,0.00014088,0.00014156,0.00014062,0.00014086,0.00014126,0.00014164,0.00014134,0.000141,0.00014112,0.00977,0.009788,0.009682,0.009778,0.009454,0.009418,0.009428,0.009424,0.009426,0.009408
578,0.004738,0.004734,0.004764,0.004768,0.004644,0.004538,0.004544,0.004544,0.004544,0.004542,0.0002058,0.0002058,0.0002046,0.000206,0.0002054,0.0002046,0.0002056,0.0002054,0.000204,0.0002034,0.00014848,0.00014848,0.00014928,0.00014796,0.00014894,0.00014794,0.0001485,0.00014778,0.00014736,0.00014784,0.010304,0.010318,0.01023,0.010312,0.010008,0.009988,0.009996,0.009986,0.009986,0.009964
580,0.005892,0.005882,0.005932,0.005942,0.005742,0.005634,0.005634,0.00563,0.00563,0.005624,0.0002538,0.0002538,0.0002528,0.000255,0.0002542,0.000249,0.0002494,0.00025,0.0002488,0.0002474,0.00017068,0.00017028,0.00017116,0.0001701,0.00017106,0.00016838,0.0001692,0.00016752,0.00016776,0.00016788,0.01061,0.01062,0.010566,0.010616,0.010396,0.010382,0.010386,0.010372,0.010368,0.010346
582,0.006968,0.006954,0.007022,0.007036,0.006756,0.00665,0.006644,0.006636,0.006638,0.006632,0.0003402,0.00034,0.0003392,0.0003412,0.0003404,0.00033,0.000331,0.0003316,0.0003296,0.0003288,0.0002114,0.0002116,0.0002122,0.0002114,0.0002116,0.000207,0.0002072,0.000206,0.0002062,0.0002064,0.01071,0.010712,0.0107,0.010714,0.010616,0.010598,0.0106,0.010584,0.010574,0.010558
584,0.007876,0.007854,0.007934,0.00795,0.00761,0.007514,0.007502,0.007496,0.007498,0.007496,0.0004906,0.0004882,0.0004888,0.0004902,0.0004908,0.0004704,0.0004726,0.0004712,0.0004688,0.0004708,0.000274,0.0002742,0.0002744,0.0002738,0.0002738,0.0002668,0.0002664,0.0002654,0.0002662,0.000266,0.010676,0.010674,0.01069,0.010678,0.010698,0.010664,0.010666,0.010652,0.010642,0.010632
586,0.008524,0.00851,0.008576,0.008586,0.008268,0.008188,0.008178,0.00817,0.008182,0.00818,0.000795,0.0007926,0.0007916,0.0007936,0.0007952,0.0007584,0.0007606,0.0007606,0.0007588,0.0007608,0.000377,0.0003766,0.0003778,0.0003766,0.0003768,0.000365,0.0003658,0.0003646,0.0003654,0.000366,0.01051,0.010506,0.010544,0.010512,0.010632,0.010582,0.01059,0.010584,0.010574,0.010576
588,0.008754,0.008752,0.008784,0.008788,0.008594,0.008534,0.008526,0.008526,0.008538,0.008542,0.001176,0.0011744,0.0011734,0.0011748,0.0011764,0.0011328,0.0011362,0.0011386,0.0011356,0.0011376,0.0005054,0.000505,0.0005062,0.0005048,0.000505,0.0004894,0.0004904,0.0004898,0.000491,0.0004912,0.010318,0.010308,0.010358,0.01032,0.010484,0.010438,0.010452,0.010456,0.010448,0.010458
590,0.008618,0.00863,0.008622,0.008614,0.008626,0.008594,0.008596,0.008602,0.008614,0.008616,0.0015456,0.0015436,0.001542,0.001544,0.0015456,0.0015082,0.0015138,0.0015178,0.0015138,0.0015166,0.0006622,0.000662,0.000663,0.0006622,0.0006618,0.000644,0.0006454,0.000645,0.0006462,0.0006462,0.010072,0.010062,0.010112,0.010072,0.010256,0.01023,0.01025,0.010258,0.010252,0.010262
592,0.008048,0.008076,0.008026,0.008012,0.008236,0.008254,0.008266,0.008278,0.008286,0.008286,0.0017898,0.0017862,0.0017856,0.0017878,0.0017884,0.0017692,0.0017756,0.0017812,0.0017754,0.0017786,0.000849,0.0008484,0.0008498,0.0008484,0.000848,0.0008274,0.0008296,0.0008294,0.0008306,0.0008296,0.009784,0.009776,0.009824,0.009786,0.009966,0.009966,0.009992,0.01,0.00999,0.009998
594,0.007084,0.007116,0.00705,0.007028,0.007364,0.007442,0.00746,0.00747,0.007472,0.007466,0.0018784,0.0018746,0.0018748,0.001878,0.0018782,0.0018774,0.001883,0.0018854,0.00188,0.0018818,0.0010626,0.0010624,0.001064,0.0010626,0.0010618,0.00104,0.001041,0.0010402,0.001041,0.0010398,0.009466,0.009456,0.009502,0.009462,0.009628,0.009654,0.009678,0.009684,0.009666,0.00967
596,0.005758,0.005784,0.005728,0.005712,0.006,0.006122,0.006132,0.006132,0.00613,0.006122,0.001848,0.0018436,0.0018462,0.0018472,0.0018498,0.0018586,0.0018602,0.001863,0.001856,0.0018564,0.0013128,0.0013122,0.001314,0.0013136,0.001312,0.0012898,0.001289,0.0012882,0.0012876,0.0012864,0.00908,0.009074,0.009114,0.00908,0.00922,0.009258,0.00927,0.009268,0.009248,0.009242
598,0.004522,0.00454,0.004506,0.0045,0.004676,0.004802,0.004804,0.004796,0.004792,0.004784,0.0017618,0.0017582,0.001759,0.0017598,0.001761,0.001772,0.0017734,0.0017734,0.001766,0.0017674,0.0015488,0.0015486,0.0015508,0.0015498,0.0015476,0.001523,0.0015212,0.0015198,0.0015186,0.0015172,0.008724,0.00872,0.008752,0.008724,0.008844,0.008868,0.008872,0.008864,0.008842,0.008836
600,0.003412,0.00342,0.003404,0.003402,0.003494,0.003602,0.003596,0.003588,0.003584,0.003578,0.0016718,0.0016672,0.0016684,0.001671,0.0016708,0.001676,0.0016752,0.0016766,0.0016708,0.0016696,0.0017836,0.0017824,0.0017854,0.0017842,0.001782,0.0017546,0.0017512,0.0017498,0.0017486,0.0017482,0.00837,0.008368,0.008392,0.008372,0.00847,0.008478,0.008476,0.008468,0.008448,0.008448
602,0.002464,0.00247,0.00246,0.002462,0.002502,0.002586,0.002578,0.002574,0.00257,0.002568,0.0016682,0.001663,0.0016638,0.0016654,0.0016664,0.0016524,0.0016518,0.0016536,0.0016492,0.001649,0.00201,0.002008,0.002012,0.00201,0.00201,0.0019788,0.0019752,0.0019754,0.0019752,0.0019756,0.008024,0.008022,0.008042,0.008024,0.008108,0.008098,0.008096,0.008092,0.00808,0.008084
604,0.0016938,0.0016988,0.0016958,0.0016994,0.0017104,0.001775,0.0017704,0.0017678,0.001769,0.0017692,0.001869,0.0018632,0.0018644,0.0018656,0.001867,0.001822,0.0018256,0.0018282,0.0018234,0.0018254,0.002222,0.002222,0.002224,0.002224,0.002222,0.002192,0.002188,0.00219,0.002192,0.002194,0.007672,0.007672,0.007692,0.007676,0.007744,0.007732,0.007736,0.007736,0.00773,0.007742
606,0.001073,0.0010738,0.0010734,0.0010778,0.0010768,0.00112,0.0011198,0.0011208,0.0011218,0.0011202,0.002394,0.00239,0.002392,0.00239,0.002394,0.002318,0.002324,0.002328,0.002322,0.00233,0.002422,0.00242,0.002424,0.002424,0.002422,0.002398,0.002398,0.0024,0.002402,0.002404,0.007256,0.007256,0.007274,0.007258,0.00732,0.007322,0.007332,0.00734,0.007336,0.007348
608,0.0007336,0.0007358,0.000734,0.0007368,0.000732,0.000757,0.0007574,0.0007594,0.0007594,0.00076,0.003164,0.003156,0.003158,0.003158,0.003162,0.003066,0.003078,0.003082,0.003078,0.003084,0.002546,0.002544,0.002548,0.002548,0.002546,0.002534,0.002534,0.00254,0.00254,0.002542,0.00676,0.00676,0.006776,0.006764,0.006824,0.006862,0.006878,0.006886,0.006882,0.00689
610,0.0006088,0.00061,0.0006108,0.000613,0.0006046,0.0006184,0.0006186,0.0006198,0.0006198,0.00062,0.004056,0.004046,0.004048,0.004048,0.004054,0.00395,0.003966,0.00397,0.003962,0.00397,0.00257,0.002568,0.002572,0.002572,0.00257,0.002572,0.002574,0.00258,0.00258,0.00258,0.006124,0.006124,0.006142,0.006126,0.006192,0.006268,0.006284,0.00629,0.006286,0.006288
612,0.0005726,0.0005714,0.0005742,0.0005774,0.00057,0.0005782,0.0005758,0.0005784,0.0005764,0.000577,0.004996,0.004984,0.004986,0.004986,0.004994,0.004894,0.00491,0.004908,0.0049,0.004904,0.002478,0.002478,0.00248,0.002482,0.002478,0.002498,0.0025,0.002504,0.002504,0.0025,0.005368,0.005372,0.005388,0.005374,0.005434,0.005532,0.00554,0.005546,0.005536,0.005536
614,0.0005656,0.0005678,0.000569,0.0005696,0.0005624,0.000571,0.0005686,0.0005686,0.0005684,0.0005686,0.005924,0.005912,0.005912,0.00591,0.005922,0.00582,0.005832,0.005828,0.005816,0.00582,0.002272,0.002272,0.002274,0.002274,0.002272,0.002306,0.002308,0.00231,0.002308,0.002302,0.004572,0.004576,0.004586,0.004576,0.004624,0.004722,0.004724,0.004726,0.004716,0.004712
616,0.0005744,0.0005768,0.0005754,0.0005746,0.0005706,0.000575,0.000574,0.0005746,0.0005718,0.0005718,0.006838,0.006824,0.006826,0.006824,0.006838,0.006732,0.00674,0.006734,0.006716,0.006722,0.0019352,0.0019364,0.0019366,0.0019382,0.0019362,0.0019784,0.0019774,0.001977,0.0019738,0.001969,0.003696,0.003702,0.003708,0.003702,0.003738,0.00382,0.00382,0.003818,0.00381,0.003808
618,0.0005918,0.000593,0.0005902,0.0005938,0.000587,0.0005888,0.0005844,0.0005842,0.000583,0.000584,0.007542,0.007528,0.007532,0.00753,0.007544,0.00744,0.007442,0.007434,0.007416,0.007424,0.0015458,0.0015462,0.001546,0.0015482,0.001547,0.0015892,0.0015866,0.0015856,0.001583,0.001579,0.00287,0.002872,0.002874,0.002874,0.002896,0.002966,0.00296,0.002962,0.002956,0.002952
620,0.0006148,0.0006182,0.0006148,0.0006198,0.000612,0.000607,0.000605,0.000607,0.0006048,0.0006058,0.007982,0.00797,0.007976,0.007974,0.007986,0.007884,0.007882,0.007874,0.007858,0.00787,0.0011544,0.0011546,0.0011548,0.0011572,0.001156,0.0011938,0.0011914,0.0011916,0.0011894,0.0011874,0.002122,0.002124,0.002122,0.002122,0.002136,0.002196,0.002188,0.002194,0.00219,0.002188
622,0.0006562,0.0006586,0.0006564,0.0006584,0.0006538,0.0006438,0.0006424,0.0006426,0.0006422,0.0006412,0.008216,0.008204,0.008212,0.00821,0.00822,0.008118,0.008114,0.008112,0.0081,0.008114,0.000793,0.0007932,0.0007934,0.0007946,0.0007942,0.000824,0.0008224,0.0008226,0.0008214,0.0008212,0.0014496,0.0014536,0.001453,0.0014518,0.0014596,0.001505,0.0014996,0.0015072,0.0015054,0.0015038
624,0.000721,0.0007216,0.000719,0.0007226,0.0007194,0.0007038,0.000699,0.0007034,0.0007022,0.0007026,0.008256,0.008246,0.008256,0.008254,0.00826,0.008162,0.00816,0.008164,0.00816,0.008172,0.0005582,0.0005578,0.000558,0.0005592,0.0005592,0.0005698,0.0005694,0.0005702,0.0005694,0.0005696,0.0009818,0.000981,0.00098,0.000982,0.000984,0.0010064,0.0010014,0.001009,0.0010094,0.0010082
626,0.0008184,0.0008182,0.000818,0.0008212,0.0008148,0.0007968,0.000797,0.0008002,0.0008,0.000801,0.008116,0.008108,0.00812,0.008116,0.008116,0.008038,0.008044,0.008056,0.008056,0.008066,0.0005794,0.000579,0.000579,0.0005794,0.000579,0.0005608,0.0005622,0.0005638,0.000564,0.0005626,0.0008706,0.0008708,0.0008676,0.0008684,0.0008688,0.0008586,0.0008544,0.000859,0.0008604,0.0008582
628,0.0009352,0.0009366,0.0009376,0.0009394,0.0009358,0.0009174,0.0009162,0.000922,0.0009216,0.0009214,0.007838,0.007834,0.007846,0.007842,0.00784,0.007798,0.007812,0.007828,0.007826,0.007836,0.0008414,0.000841,0.0008412,0.0008408,0.0008408,0.0008056,0.0008072,0.0008094,0.0008096,0.0008088,0.0011062,0.0011104,0.0011052,0.0011052,0.0011064,0.001075,0.001071,0.001079,0.0010822,0.001074
630,0.0010636,0.0010626,0.0010634,0.0010658,0.001064,0.0010472,0.0010452,0.001051,0.0010496,0.0010504,0.007506,0.007504,0.007518,0.007512,0.00751,0.00751,0.007528,0.007542,0.007538,0.007544,0.0011912,0.0011906,0.0011916,0.0011916,0.001191,0.001153,0.001154,0.0011564,0.0011562,0.0011546,0.0014784,0.0014828,0.001477,0.0014762,0.0014742,0.0014416,0.0014382,0.001446,0.0014484,0.0014378
632,0.0011946,0.0011938,0.0011922,0.001195,0.0011942,0.001182,0.0011814,0.0011832,0.0011832,0.0011824,0.007142,0.007142,0.007154,0.007148,0.007148,0.007192,0.007204,0.007214,0.007204,0.007204,0.0015664,0.001565,0.0015668,0.0015664,0.0015652,0.0015306,0.0015306,0.001533,0.0015318,0.0015286,0.0018832,0.0018842,0.0018836,0.0018848,0.0018776,0.0018514,0.0018464,0.0018516,0.0018536,0.0018416
634,0.001326,0.0013274,0.0013254,0.001327,0.0013284,0.0013194,0.0013182,0.001318,0.0013146,0.0013136,0.006776,0.006772,0.006784,0.006778,0.006776,0.006852,0.006856,0.006858,0.006844,0.006842,0.0019444,0.0019434,0.0019446,0.0019444,0.001943,0.0019126,0.001911,0.0019124,0.0019096,0.0019056,0.002294,0.002296,0.002294,0.002296,0.00229,0.002266,0.00226,0.002264,0.002268,0.002246
636,0.0014694,0.0014722,0.0014706,0.0014722,0.0014736,0.0014642,0.0014612,0.0014596,0.0014578,0.0014566,0.006378,0.006376,0.006388,0.006382,0.006382,0.006462,0.006456,0.006454,0.006438,0.006434,0.002352,0.00235,0.002352,0.002352,0.00235,0.002322,0.002318,0.002318,0.002316,0.00231,0.00274,0.002738,0.002736,0.002738,0.002736,0.00271,0.002704,0.002704,0.002708,0.00269
638,0.0016006,0.0016022,0.001598,0.001602,0.0016024,0.0015914,0.0015874,0.0015836,0.001584,0.0015832,0.00604,0.00604,0.006048,0.006044,0.006046,0.006112,0.006098,0.006096,0.006082,0.00608,0.00271,0.002708,0.00271,0.00271,0.002708,0.002678,0.002672,0.002674,0.002672,0.002668,0.003128,0.003132,0.00313,0.003132,0.00313,0.0031,0.003094,0.003092,0.003096,0.003082
640,0.0017262,0.0017258,0.001722,0.0017258,0.00173,0.0017116,0.0017056,0.0017034,0.0017052,0.0017038,0.005758,0.005758,0.005768,0.00576,0.005764,0.005806,0.005792,0.005792,0.00578,0.005784,0.003016,0.003014,0.003018,0.003016,0.003014,0.002984,0.002978,0.00298,0.002978,0.002976,0.003448,0.00345,0.003452,0.00345,0.003448,0.00342,0.003412,0.003416,0.003418,0.003402
642,0.001849,0.0018488,0.0018434,0.0018486,0.0018518,0.0018278,0.0018244,0.0018218,0.0018276,0.0018268,0.00551,0.005512,0.00552,0.005514,0.005518,0.00553,0.005522,0.005526,0.005516,0.005526,0.003248,0.003248,0.00325,0.003248,0.003248,0.003216,0.003212,0.003216,0.003216,0.003216,0.003646,0.003644,0.003652,0.003646,0.00365,0.00362,0.003614,0.003622,0.003626,0.003614
644,0.0019672,0.001967,0.0019618,0.0019638,0.0019708,0.0019418,0.0019434,0.0019402,0.0019466,0.001947,0.005304,0.005302,0.00531,0.005304,0.005308,0.005302,0.0053,0.00531,0.005304,0.005316,0.003398,0.003398,0.0034,0.003398,0.003398,0.003366,0.003366,0.003372,0.003372,0.003372,0.003714,0.003712,0.003716,0.003716,0.003716,0.003692,0.00369,0.003698,0.003706,0.003696
646,0.0021,0.002106,0.002098,0.002102,0.002108,0.002074,0.002078,0.002078,0.002086,0.002082,0.005096,0.005098,0.005104,0.005096,0.005104,0.005084,0.00509,0.005106,0.005104,0.005114,0.003472,0.003472,0.003476,0.003474,0.003472,0.003442,0.003446,0.003454,0.003456,0.003454,0.003702,0.003702,0.003702,0.003702,0.003706,0.003686,0.003684,0.003696,0.0037,0.003696
648,0.00222,0.00222,0.00221,0.002216,0.002224,0.002192,0.002198,0.002196,0.002206,0.002204,0.004928,0.004932,0.00494,0.00493,0.004936,0.004924,0.004934,0.004952,0.004946,0.004956,0.00349,0.00349,0.003494,0.003492,0.00349,0.003466,0.003472,0.00348,0.003482,0.003482,0.003666,0.003666,0.003672,0.003666,0.003672,0.003662,0.003664,0.003672,0.003678,0.00367
650,0.002302,0.002302,0.002298,0.002302,0.002308,0.002284,0.002292,0.00229,0.002296,0.002294,0.004738,0.00474,0.004748,0.004738,0.004746,0.004748,0.00476,0.004774,0.004768,0.004774,0.003464,0.003464,0.003468,0.003466,0.003464,0.00345,0.003458,0.003466,0.003466,0.003462,0.003598,0.003594,0.003602,0.003598,0.003602,0.003604,0.003608,0.00361,0.003616,0.003606
652,0.00235,0.00235,0.002346,0.002348,0.002358,0.002342,0.002348,0.002346,0.002352,0.002348,0.004502,0.004504,0.00451,0.004502,0.00451,0.004526,0.004538,0.004548,0.004538,0.004544,0.003368,0.003368,0.003372,0.00337,0.003368,0.00337,0.003376,0.003382,0.00338,0.003376,0.003456,0.003456,0.003462,0.00346,0.003464,0.003482,0.003482,0.003482,0.003484,0.003472
654,0.002384,0.002384,0.002374,0.00238,0.00239,0.00238,0.002384,0.00238,0.002384,0.002378,0.004258,0.004262,0.004266,0.00426,0.004266,0.004294,0.004302,0.004306,0.004292,0.004296,0.003186,0.003186,0.003188,0.003188,0.003186,0.003208,0.00321,0.003214,0.00321,0.003204,0.00322,0.00323,0.003234,0.003226,0.003232,0.003272,0.00327,0.003264,0.003264,0.003254
656,0.002414,0.002408,0.002408,0.002406,0.00242,0.002416,0.002416,0.002408,0.002412,0.002404,0.004024,0.004026,0.004028,0.004022,0.00403,0.004064,0.004064,0.004064,0.004052,0.004052,0.00286,0.00286,0.002862,0.002862,0.00286,0.002904,0.002902,0.002902,0.002896,0.002888,0.002862,0.00287,0.002874,0.002866,0.002878,0.00292,0.00292,0.00291,0.002904,0.0029
658,0.002446,0.002444,0.002444,0.002444,0.002452,0.002446,0.002444,0.00244,0.002442,0.002436,0.003856,0.003858,0.003862,0.003856,0.003862,0.003892,0.003884,0.003884,0.003874,0.003876,0.002492,0.002492,0.002494,0.002492,0.002492,0.002542,0.002538,0.002538,0.002532,0.002526,0.002488,0.002496,0.002496,0.002494,0.0025,0.002548,0.002544,0.002534,0.00253,0.00253
660,0.002482,0.002476,0.002474,0.002478,0.002488,0.002476,0.002472,0.00247,0.00247,0.002464,0.003718,0.00372,0.003724,0.003718,0.003722,0.003738,0.00373,0.003736,0.003724,0.00373,0.0021,0.002102,0.002102,0.002102,0.0021,0.00215,0.002146,0.002144,0.00214,0.002136,0.002104,0.002114,0.002114,0.002112,0.002116,0.002154,0.002154,0.002144,0.002146,0.002146
662,0.002506,0.002498,0.002496,0.002502,0.002508,0.002494,0.002488,0.002486,0.00249,0.002482,0.00359,0.003592,0.003594,0.003588,0.003592,0.003596,0.003592,0.003598,0.003588,0.003596,0.001706,0.0017066,0.001708,0.0017066,0.001707,0.0017504,0.001747,0.0017462,0.0017436,0.0017424,0.001722,0.0017302,0.0017332,0.0017264,0.001731,0.0017652,0.001767,0.0017584,0.0017586,0.0017652
664,0.002486,0.00248,0.002476,0.00248,0.002488,0.002472,0.002468,0.002468,0.002474,0.002468,0.003428,0.003432,0.003432,0.00343,0.00343,0.00343,0.003426,0.003434,0.00343,0.003438,0.0012972,0.0012978,0.0012992,0.0012968,0.0012982,0.0013352,0.0013326,0.0013336,0.0013318,0.0013318,0.0013218,0.0013322,0.0013312,0.001324,0.0013246,0.0013624,0.001362,0.0013562,0.0013554,0.0013614
666,0.002366,0.002358,0.002358,0.002362,0.00237,0.002356,0.002358,0.002358,0.002368,0.002362,0.003172,0.003176,0.003176,0.00317,0.003176,0.003176,0.003178,0.00319,0.003186,0.00319,0.0008982,0.0008992,0.0009,0.0008986,0.0008982,0.0009342,0.0009324,0.000935,0.0009324,0.0009334,0.000925,0.0009344,0.0009314,0.0009342,0.0009334,0.000966,0.0009682,0.0009582,0.0009624,0.0009684
668,0.00216,0.002148,0.002152,0.002156,0.002166,0.002158,0.00216,0.002162,0.00217,0.002164,0.002836,0.002838,0.00284,0.002838,0.00284,0.002852,0.002852,0.002866,0.002866,0.002868,0.0005742,0.0005756,0.0005762,0.0005746,0.0005752,0.0006046,0.000605,0.0006064,0.0006036,0.000605,0.000603,0.0006136,0.0006074,0.000611,0.0006112,0.0006398,0.0006416,0.0006354,0.0006312,0.0006412
670,0.001891,0.0018824,0.0018874,0.0018858,0.0018964,0.0019028,0.0019062,0.0019104,0.0019158,0.0019086,0.00245,0.002452,0.002452,0.002454,0.002454,0.002476,0.002478,0.00249,0.002488,0.002492,0.0003404,0.0003414,0.0003426,0.0003412,0.0003416,0.0003606,0.000361,0.0003626,0.0003596,0.0003616,0.0003704,0.0003854,0.0003748,0.0003802,0.0003796,0.0003964,0.0003994,0.0003912,0.00039,0.000398
672,0.0015978,0.0015918,0.0015944,0.0015922,0.001603,0.0016242,0.0016234,0.0016246,0.0016286,0.0016188,0.00205,0.00205,0.002048,0.002048,0.00205,0.002082,0.002086,0.00209,0.002092,0.002094,0.0002184,0.0002188,0.0002198,0.0002186,0.0002178,0.000229,0.000228,0.0002286,0.0002272,0.0002276,0.0002554,0.0002596,0.0002504,0.000259,0.0002566,0.0002634,0.0002694,0.0002598,0.0002592,0.0002688
674,0.001261,0.0012508,0.0012554,0.0012568,0.0012616,0.0012906,0.0012908,0.0012916,0.0012918,0.0012848,0.0016006,0.001604,0.0016024,0.0016036,0.0016042,0.0016452,0.001645,0.0016496,0.0016502,0.0016488,0.00016916,0.0001689,0.0001703,0.00016936,0.00016872,0.00017426,0.00017318,0.00017278,0.0001725,0.00017168,0.000203,0.0002098,0.0002004,0.0002126,0.0002036,0.0002194,0.000218,0.0002064,0.0002066,0.000213
676,0.0009574,0.0009432,0.0009524,0.0009476,0.0009536,0.0009888,0.0009834,0.0009844,0.000987,0.0009758,0.0012078,0.0012076,0.001208,0.0012078,0.0012096,0.0012518,0.0012556,0.001256,0.0012558,0.001252,0.0001535,0.00015312,0.00015464,0.0001526,0.00015278,0.00015786,0.00015638,0.00015612,0.000155,0.00015558,0.00018798,0.00019746,0.00018048,0.00018856,0.00018848,0.0002004,0.00019784,0.00019066,0.0001887,0.00019732
678,0.000673,0.0006624,0.0006718,0.0006678,0.0006656,0.0007028,0.000699,0.0006984,0.0006986,0.000691,0.0008568,0.0008576,0.000855,0.0008566,0.000857,0.000898,0.0008976,0.0008998,0.0009016,0.0008964,0.00014486,0.00014366,0.00014592,0.00014472,0.0001447,0.00014998,0.00014764,0.00014674,0.000146,0.00014672,0.00017696,0.00018566,0.00017228,0.00018326,0.00017984,0.00018902,0.00018682,0.00018098,0.00017578,0.00018782
680,0.0004326,0.0004282,0.0004362,0.0004302,0.0004282,0.0004576,0.0004536,0.0004536,0.0004536,0.0004506,0.0005642,0.0005664,0.0005626,0.0005644,0.000564,0.0005968,0.0005938,0.0005954,0.0006004,0.0005928,0.00013806,0.0001373,0.00013952,0.00013966,0.00013884,0.0001442,0.00014246,0.00014064,0.00014116,0.00014092,0.00017042,0.00017926,0.00017102,0.00017982,0.00017126,0.0001856,0.00018232,0.00017482,0.00017426,0.00018232
682,0.0002802,0.0002722,0.00028,0.0002724,0.000272,0.0002888,0.0002884,0.0002864,0.0002894,0.000284,0.0003684,0.000373,0.0003658,0.0003708,0.0003714,0.00039,0.000387,0.0003886,0.0003902,0.0003882,0.00013572,0.00013372,0.00013642,0.00013624,0.00013618,0.00014134,0.0001389,0.0001364,0.00013816,0.00013962,0.00017786,0.00017538,0.000169,0.00017502,0.00017554,0.00018408,0.00018174,0.00017454,0.00017638,0.00018592
684,0.0002122,0.000206,0.0002108,0.0002064,0.0002022,0.0002152,0.0002094,0.0002106,0.0002076,0.0002056,0.0002794,0.0002826,0.0002724,0.00028,0.0002782,0.0002862,0.000286,0.0002894,0.0002914,0.0002842,0.00013216,0.00013142,0.00013358,0.00013426,0.00013356,0.00013784,0.00013588,0.00013382,0.00013538,0.00013658,0.00017476,0.0001754,0.00016618,0.00016802,0.00017496,0.00018216,0.00018248,0.0001759,0.00017276,0.0001803
686,0.00018656,0.00018266,0.0001862,0.00018452,0.00017492,0.00018432,0.00018558,0.00018478,0.000183,0.00018694,0.0002478,0.000248,0.0002416,0.0002474,0.0002498,0.0002496,0.0002506,0.0002506,0.0002536,0.0002496,0.00012782,0.0001256,0.00012828,0.00012798,0.00012744,0.00013188,0.00013002,0.00012752,0.00013028,0.00013018,0.00016614,0.00017494,0.00016134,0.0001684,0.00016256,0.00018074,0.00017248,0.00016642,0.00016632,0.00017832
688,0.00017024,0.00016838,0.00017604,0.00017478,0.00016612,0.00017136,0.00017,0.00017194,0.00017198,0.00016922,0.0002278,0.0002292,0.0002242,0.0002274,0.0002296,0.0002256,0.0002282,0.000227,0.0002322,0.000228,0.00012212,0.00012064,0.00012168,0.00012304,0.00012204,0.00012526,0.00012384,0.0001215,0.00012456,0.00012326,0.0001643,0.00016262,0.0001515,0.0001611,0.000161,0.00016958,0.0001687,0.00016202,0.00016388,0.00017612
690,0.0001659,0.000158,0.00016828,0.00016358,0.00015506,0.0001659,0.00016134,0.00016176,0.00016014,0.00016036,0.0002122,0.0002114,0.0002066,0.000212,0.0002118,0.0002104,0.000212,0.00021,0.0002138,0.0002094,0.0001156,0.00011316,0.0001156,0.00011616,0.00011576,0.00011926,0.00011646,0.0001147,0.00011698,0.00011624,0.00016098,0.00015826,0.00014734,0.00015764,0.0001545,0.00016738,0.00016254,0.00015798,0.00015534,0.0001674
692,0.00015548,0.00015686,0.00015824,0.00015508,0.00014576,0.00015864,0.00015674,0.0001506,0.0001477,0.00015186,0.00019362,0.00019554,0.00018586,0.00019456,0.0001967,0.00019472,0.00019378,0.00019478,0.00019178,0.00019014,0.00010732,0.000107,0.00010726,0.00010834,0.00010724,0.00010942,0.000109,0.00010596,0.0001111,0.00010828,0.00014946,0.00015074,0.00014332,0.00014596,0.00015188,0.00015684,0.00015264,0.0001506,0.00014856,0.00016232
694,0.00013828,0.00014538,0.00015296,0.00013844,0.0001353,0.00015176,0.00014306,0.00014274,0.00014038,0.0001428,0.00017692,0.00017748,0.00016994,0.00017558,0.00018102,0.00017804,0.00017582,0.00018174,0.00017856,0.00017722,0.00010054,9.808e-05,9.902e-05,0.0001018,9.942e-05,0.00010216,0.00010084,9.906e-05,0.0001014,9.902e-05,0.0001478,0.00014704,0.0001343,0.00013734,0.00014454,0.00015118,0.00014068,0.00014644,0.00014572,0.00014742
696,0.00012504,0.00013148,0.00014214,0.00013668,0.0001225,0.00013656,0.0001337,0.00013588,0.00012994,0.00013722,0.00016116,0.000164,0.0001596,0.00016242,0.0001641,0.00016078,0.00016444,0.00016252,0.00016246,0.00015954,9.302e-05,9.028e-05,9.232e-05,9.41e-05,9.284e-05,9.51e-05,9.31e-05,9.236e-05,9.464e-05,9.196e-05,0.0001397,0.00013584,0.00012806,0.00013196,0.00013764,0.0001442,0.00013288,0.00013892,0.00013848,0.0001461
698,0.00012188,0.0001242,0.00013154,0.00013122,0.00011298,0.00013048,0.00013134,0.00012766,0.00011994,0.00012848,0.00015146,0.00015226,0.00014608,0.00015176,0.00015168,0.00014728,0.00015138,0.00015196,0.00015026,0.0001456,8.62e-05,8.494e-05,8.558e-05,8.938e-05,8.596e-05,9.016e-05,8.688e-05,8.472e-05,8.898e-05,8.61e-05,0.00013216,0.0001316,0.00012458,0.00013068,0.0001279,0.00014198,0.00013024,0.0001317,0.00013338,0.00014228
700,0.00011486,0.00012328,0.00012472,0.00011794,0.00011218,0.00012398,0.00012044,0.00012148,0.00011662,0.00011984,0.000139,0.00013878,0.00013208,0.00014056,0.00014304,0.00013672,0.00014192,0.00014218,0.00013972,0.00013538,8.042e-05,7.936e-05,7.862e-05,8.29e-05,8.06e-05,8.454e-05,8.21e-05,8.01e-05,8.37e-05,8.018e-05,0.00012568,0.00012628,0.00012068,0.00012906,0.00013208,0.000133,0.00012626,0.0001264,0.00012646,0.00013652
702,0.00010756,0.00011038,0.00011706,0.00011306,0.00010482,0.00011804,0.00012082,0.00011068,0.0001105,0.00012116,0.00013134,0.00013272,0.0001275,0.00012962,0.0001345,0.0001263,0.00013084,0.0001299,0.0001255,0.00012562,7.524e-05,7.316e-05,7.544e-05,7.706e-05,7.706e-05,7.87e-05,7.554e-05,7.482e-05,7.88e-05,7.546e-05,0.00013244,0.00012674,0.00011484,0.00011494,0.00012324,0.00013182,0.00011966,0.00012226,0.00012338,0.00013
704,9.832e-05,0.0001115,0.00011772,0.00010448,9.622e-05,0.00011046,0.00011318,0.0001071,0.00010402,0.0001157,0.00012094,0.00012384,0.00012266,0.00012232,0.000127,0.00011828,0.00012474,0.00012498,0.0001201,0.0001164,7.108e-05,7.03e-05,7.07e-05,7.362e-05,7.07e-05,7.586e-05,7.078e-05,7.102e-05,7.368e-05,7.248e-05,0.0001196,0.00012586,0.0001124,0.00011656,0.00012146,0.00012508,0.00011354,0.00012138,0.00012256,0.00012446
706,9.36e-05,0.00010796,0.00010882,9.406e-05,9.132e-05,0.00010586,0.00010672,0.0001066,9.636e-05,0.00010746,0.00011788,0.00011546,0.00011638,0.0001193,0.00011898,0.00010958,0.00011916,0.00011754,0.0001129,0.00011392,6.788e-05,6.72e-05,6.534e-05,6.964e-05,6.774e-05,7.104e-05,6.702e-05,6.874e-05,7.028e-05,6.784e-05,0.00012272,0.00011676,0.00010808,0.00011098,0.0001193,0.0001218,0.0001141,0.000121,0.00011862,0.00012118
708,9.106e-05,0.00010158,9.846e-05,9.268e-05,8.772e-05,0.00010224,0.00010336,0.0001011,9.302e-05,0.00010352,0.00011276,0.00011324,0.0001124,0.00011396,0.00011558,0.00010454,0.00011644,0.00011224,0.00010922,0.00011062,6.502e-05,6.378e-05,6.286e-05,6.624e-05,6.42e-05,6.74e-05,6.43e-05,6.52e-05,6.826e-05,6.454e-05,0.00011564,0.0001154,0.00010252,0.00011494,0.00011908,0.00011644,0.00010658,0.00011296,0.0001192,0.00011308
710,8.516e-05,9.222e-05,9.002e-05,9.154e-05,9.394e-05,0.00010268,0.00010514,9.546e-05,8.74e-05,0.00010666,0.00011002,0.00010784,0.00010946,0.0001106,0.00011086,0.00010702,0.0001135,0.00010858,0.00010764,0.0001081,6.294e-05,6.266e-05,6.32e-05,6.458e-05,6.338e-05,6.43e-05,6.248e-05,6.19e-05,6.458e-05,6.12e-05,0.00012196,0.00010694,0.00010486,0.000122,0.00012206,0.00011794,0.00010688,0.00011356,0.00011628,0.00011722
712,8.538e-05,9.28e-05,8.174e-05,9.138e-05,8.942e-05,9.59e-05,0.00010222,9.396e-05,9.042e-05,9.76e-05,0.00010492,0.0001074,0.00010534,0.00010946,0.00010996,0.00010352,0.00011304,0.00010582,0.0001014,0.00010674,6.272e-05,6.126e-05,5.96e-05,6.244e-05,6.19e-05,6.142e-05,5.92e-05,6.014e-05,6.374e-05,6.076e-05,0.00011668,0.00010074,0.0001002,0.00011618,0.00011324,0.00010998,0.00010064,0.00011472,0.00011542,0.00011804
714,7.97e-05,9.098e-05,8e-05,8.394e-05,8.372e-05,9.536e-05,9.732e-05,8.872e-05,8.646e-05,9.358e-05,9.826e-05,0.00010484,0.00010444,0.00010606,0.00010826,9.65e-05,0.00010986,0.0001026,9.888e-05,0.00010546,6.104e-05,6.028e-05,5.86e-05,5.97e-05,6.006e-05,5.984e-05,5.722e-05,5.764e-05,6.178e-05,5.922e-05,0.00011612,0.00010444,9.828e-05,0.0001171,0.00011254,0.0001098,9.852e-05,0.00011,0.00011696,0.00010952
716,7.046e-05,8.762e-05,7.74e-05,7.706e-05,7.816e-05,9.482e-05,9.638e-05,8.54e-05,8.024e-05,8.974e-05,9.364e-05,9.994e-05,0.00010438,0.00010086,0.00010458,9.482e-05,0.00010364,0.00010126,9.392e-05,0.0001015,5.838e-05,5.732e-05,5.61e-05,5.762e-05,5.644e-05,5.612e-05,5.506e-05,5.534e-05,5.856e-05,5.652e-05,0.00011434,0.00010292,9.838e-05,0.00010498,0.00010654,0.0001003,9.94e-05,0.00010112,0.00011508,0.00010338
718,6.79e-05,8.814e-05,6.876e-05,6.844e-05,7.268e-05,9.172e-05,8.632e-05,8.264e-05,7.228e-05,9.24e-05,8.8e-05,9.594e-05,0.00010006,9.744e-05,0.00010102,9.2e-05,0.00010116,9.46e-05,9.5e-05,9.068e-05,5.402e-05,5.366e-05,5.294e-05,5.51e-05,5.44e-05,5.122e-05,5.204e-05,5.35e-05,5.432e-05,5.454e-05,0.00010104,9.286e-05,9.658e-05,0.00010032,0.00010052,9.624e-05,0.0001,9.44e-05,0.00010702,9.724e-05
720,6.146e-05,7.97e-05,6.012e-05,6.648e-05,6.95e-05,8.21e-05,8.136e-05,7.35e-05,7.01e-05,7.988e-05,8.998e-05,9.166e-05,9.856e-05,9.162e-05,9.586e-05,8.32e-05,9.432e-05,8.802e-05,8.716e-05,8.68e-05,5.092e-05,4.91e-05,5.098e-05,5.096e-05,4.962e-05,4.936e-05,4.806e-05,4.988e-05,5.232e-05,5.068e-05,9.934e-05,9.32e-05,8.788e-05,9.982e-05,0.00010084,9.878e-05,9.11e-05,8.694e-05,0.00010872,9.364e-05
722,5.336e-05,7.332e-05,5.676e-05,6.386e-05,6.668e-05,7.482e-05,7.768e-05,7.342e-05,6.296e-05,7.964e-05,7.736e-05,8.55e-05,9.494e-05,8.604e-05,9.098e-05,8.298e-05,9.102e-05,8.36e-05,8.33e-05,8.446e-05,4.752e-05,4.74e-05,4.678e-05,4.866e-05,4.858e-05,4.69e-05,4.652e-05,5.014e-05,5.108e-05,5.014e-05,9.49e-05,9.134e-05,8.728e-05,8.784e-05,9.636e-05,8.726e-05,9.01e-05,9.456e-05,9.632e-05,8.684e-05
724,5.04e-05,6.936e-05,5.32e-05,6.06e-05,6.238e-05,7.044e-05,7.152e-05,6.894e-05,5.588e-05,7.486e-05,7.128e-05,8.264e-05,9.246e-05,8.562e-05,8.784e-05,8.348e-05,8.6e-05,8.104e-05,7.868e-05,8.158e-05,4.69e-05,4.668e-05,4.708e-05,4.598e-05,4.474e-05,4.542e-05,4.438e-05,4.876e-05,4.722e-05,4.606e-05,7.806e-05,8.688e-05,8.33e-05,8.488e-05,9.128e-05,7.954e-05,8.39e-05,8.882e-05,9.2e-05,8.842e-05
726,5.296e-05,6.898e-05,5.758e-05,5.374e-05,6.15e-05,6.902e-05,6.49e-05,7.036e-05,5.286e-05,6.542e-05,6.926e-05,7.86e-05,8.758e-05,8.24e-05,8.386e-05,8.026e-05,8.506e-05,8.03e-05,8.084e-05,8.392e-05,4.588e-05,4.562e-05,4.668e-05,4.562e-05,4.42e-05,4.468e-05,4.172e-05,4.598e-05,4.49e-05,5.054e-05,8.522e-05,9.776e-05,8.366e-05,9.168e-05,9.246e-05,8.44e-05,8.134e-05,8.928e-05,9.394e-05,7.764e-05
728,4.244e-05,5.626e-05,4.286e-05,5.336e-05,5.978e-05,6.144e-05,6.356e-05,5.98e-05,5.696e-05,6.348e-05,7.25e-05,7.896e-05,8.596e-05,8.014e-05,8.282e-05,8.528e-05,8.642e-05,7.982e-05,7.874e-05,8.402e-05,4.572e-05,4.568e-05,4.602e-05,4.456e-05,4.43e-05,4.252e-05,4.164e-05,4.716e-05,4.64e-05,4.666e-05,7.316e-05,9.09e-05,8.61e-05,8.508e-05,8.724e-05,8.396e-05,8.22e-05,8.442e-05,9.352e-05,7.774e-05
730,4.95e-05,5.292e-05,3.234e-05,4.446e-05,5.898e-05,5.712e-05,6.012e-05,5.732e-05,5.032e-05,5.868e-05,7.448e-05,8.348e-05,8.552e-05,8.438e-05,8.194e-05,8.63e-05,8.63e-05,7.99e-05,7.216e-05,8.812e-05,4.596e-05,4.712e-05,4.628e-05,4.398e-05,4.476e-05,4.28e-05,4.438e-05,4.826e-05,4.716e-05,4.716e-05,7.962e-05,8.132e-05,8.272e-05,9.09e-05,8.726e-05,7.37e-05,7.584e-05,7.92e-05,8.866e-05,7.732e-05
732,4.384e-05,5.546e-05,4.32e-05,3.46e-05,5.814e-05,5.34e-05,5.37e-05,5.434e-05,4.64e-05,5.496e-05,7.636e-05,8.024e-05,8.398e-05,8.012e-05,7.862e-05,8.586e-05,7.762e-05,7.704e-05,7.612e-05,9.044e-05,4.308e-05,4.656e-05,4.59e-05,4.292e-05,4.412e-05,4.464e-05,4.516e-05,5.048e-05,4.716e-05,4.716e-05,7.224e-05,8.008e-05,8.542e-05,8.616e-05,9.01e-05,7.522e-05,7.92e-05,7.826e-05,8.364e-05,7.018e-05
734,4.282e-05,6.468e-05,3.348e-05,3.354e-05,6.016e-05,4.75e-05,4.694e-05,5.078e-05,4.35e-05,5.642e-05,6.934e-05,7.598e-05,7.474e-05,7.17e-05,7.272e-05,8.086e-05,8.346e-05,7.548e-05,7.846e-05,8.792e-05,3.85e-05,4.414e-05,4.344e-05,4.102e-05,4.376e-05,4.226e-05,4.326e-05,4.684e-05,4.638e-05,4.486e-05,6.318e-05,7.548e-05,7.726e-05,8.396e-05,8.542e-05,6.686e-05,7.886e-05,8.212e-05,7.964e-05,6.77e-05
736,4.174e-05,4.336e-05,3.246e-05,2.89e-05,5.372e-05,4.14e-05,5.004e-05,4.194e-05,3.298e-05,5.17e-05,6.664e-05,7.29e-05,7.294e-05,7.8e-05,7.202e-05,7.6e-05,6.914e-05,6.932e-05,7.57e-05,8.022e-05,3.528e-05,4.022e-05,4.14e-05,3.494e-05,4.092e-05,3.65e-05,4.084e-05,4.146e-05,3.978e-05,3.85e-05,6.124e-05,7.864e-05,7.3e-05,8.33e-05,7.288e-05,5.824e-05,7.348e-05,7.562e-05,6.932e-05,6.73e-05
738,3.778e-05,4.276e-05,2.956e-05,1.9482e-05,4.166e-05,2.516e-05,4.16e-05,3.638e-05,3.416e-05,4.534e-05,6.178e-05,6.694e-05,6.79e-05,6.712e-05,6.4e-05,7.062e-05,6.2e-05,6.542e-05,6.95e-05,7.562e-05,2.906e-05,3.358e-05,3.554e-05,3.142e-05,3.512e-05,3.242e-05,3.564e-05,3.926e-05,3.328e-05,3.502e-05,5.836e-05,6.032e-05,6.552e-05,5.932e-05,6.352e-05,5.168e-05,6.302e-05,6.584e-05,6.424e-05,4.574e-05
740,3.786e-05,2.916e-05,2.496e-05,2.792e-05,3.708e-05,1.949e-05,3.568e-05,3.29e-05,2.58e-05,4.022e-05,5.538e-05,6.202e-05,6.36e-05,6.424e-05,5.882e-05,6.198e-05,5.75e-05,5.942e-05,6.546e-05,7.024e-05,2.44e-05,2.76e-05,3.092e-05,2.76e-05,3.258e-05,2.956e-05,3.292e-05,3.554e-05,3.102e-05,3.294e-05,4.844e-05,5.814e-05,5.622e-05,5.942e-05,5.284e-05,4.336e-05,5.184e-05,5.286e-05,6.33e-05,4.364e-05
742,3.34e-05,2.988e-05,1.928e-05,7.608e-06,2.958e-05,1.8308e-05,3.098e-05,2.19e-05,2.468e-05,2.726e-05,5.35e-05,5.45e-05,6.064e-05,5.76e-05,5.32e-05,5.932e-05,5.21e-05,4.56e-05,6.532e-05,6.208e-05,2.212e-05,2.228e-05,2.602e-05,2.554e-05,2.866e-05,2.486e-05,2.964e-05,2.974e-05,2.82e-05,2.828e-05,4.238e-05,5.988e-05,4.998e-05,4.504e-05,4.534e-05,4.228e-05,5.106e-05,4.442e-05,5.782e-05,3.596e-05
744,2.81e-05,2.082e-05,1.7054e-05,8.542e-06,2.636e-05,1.084e-05,1.5428e-05,1.9874e-05,2.77e-05,2.376e-05,4.208e-05,5.52e-05,5.032e-05,4.768e-05,5.634e-05,5.924e-05,5.81e-05,4.718e-05,6.544e-05,6.25e-05,1.9444e-05,1.823e-05,1.9728e-05,1.974e-05,2.638e-05,2.198e-05,2.412e-05,2.856e-05,2.124e-05,2.344e-05,2.83e-05,3.962e-05,4.862e-05,4.618e-05,3.708e-05,4.942e-05,3.846e-05,5.756e-05,5.326e-05,3.804e-05
746,2.624e-05,3.306e-05,1.7326e-05,1.4188e-05,1.9506e-05,0,1.4594e-05,2.404e-05,2.906e-05,2.552e-05,4.912e-05,5.44e-05,4.802e-05,5.13e-05,6.08e-05,5.086e-05,5.186e-05,4.236e-05,6.114e-05,5.836e-05,1.4584e-05,1.7298e-05,1.912e-05,1.6782e-05,2.206e-05,2.06e-05,2.6e-05,2.514e-05,2.478e-05,2.602e-05,2.246e-05,4.716e-05,4.164e-05,4.514e-05,3.268e-05,3.37e-05,3.75e-05,4.612e-05,4.83e-05,3.414e-05
748,3.09e-05,3.068e-05,2.136e-05,8.084e-06,1.7974e-05,0,1.3404e-05,1.8222e-05,2.38e-05,1.9018e-05,4.378e-05,5.098e-05,4.976e-05,4.544e-05,4.814e-05,5.464e-05,5.038e-05,4.36e-05,6.26e-05,5.918e-05,1.2622e-05,1.3054e-05,1.9314e-05,1.8828e-05,2.172e-05,1.8648e-05,2.41e-05,2.394e-05,2.216e-05,2.326e-05,2.554e-05,3.726e-05,4.166e-05,1.875e-05,2.182e-05,2.512e-05,3.214e-05,4.698e-05,4.716e-05,3.808e-05
750,2.254e-05,2.516e-05,1.237e-05,1.1924e-05,1.3072e-05,0,5.458e-06,1.518e-05,2.288e-05,1.6738e-05,4.78e-05,4.904e-05,4.978e-05,4.174e-05,4.898e-05,4.062e-05,4.784e-05,4.472e-05,6.148e-05,5.434e-05,1.1048e-05,1.3964e-05,1.7728e-05,1.8896e-05,1.9884e-05,2.162e-05,2.238e-05,2.298e-05,1.9022e-05,1.6948e-05,2.734e-05,2.606e-05,3.982e-05,2.6e-05,1.2838e-05,3.186e-05,3.2e-05,5.082e-05,3.408e-05,3.598e-05
752,2.656e-05,3.156e-05,2.316e-05,3.196e-05,1.488e-05,0,2.204e-05,1.8392e-05,1.361e-05,2.168e-05,4.454e-05,5.682e-05,5.354e-05,4.676e-05,5.52e-05,4.934e-05,4.994e-05,4.466e-05,5.738e-05,4.988e-05,9.782e-06,1.239e-05,1.9574e-05,1.6944e-05,2.096e-05,1.8224e-05,2.478e-05,2.51e-05,2.046e-05,2.07e-05,3.584e-05,2.52e-05,3.192e-05,9.268e-06,2.294e-05,3.136e-05,4.138e-05,6.064e-05,2.912e-05,2.414e-05
754,2.892e-05,3.608e-05,1.2028e-05,1.7474e-05,1.2508e-05,3.044e-06,8.75e-06,1.9838e-05,1.4214e-05,1.9646e-05,5.082e-05,4.642e-05,4.638e-05,4.296e-05,5.542e-05,5.09e-05,5.126e-05,4.558e-05,6.01e-05,4.86e-05,1.096e-05,8.968e-06,1.7068e-05,1.3946e-05,2.12e-05,1.8258e-05,2.728e-05,1.9166e-05,2.054e-05,1.824e-05,2.964e-05,3.28e-05,2.31e-05,2.62e-05,2.598e-05,3.402e-05,2.946e-05,5.038e-05,4.012e-05,4.028e-05
756,2.776e-05,3.658e-05,1.5696e-05,2.094e-05,1.3064e-05,5.974e-06,1.4114e-05,1.5364e-05,2.164e-05,2.192e-05,4.782e-05,4.742e-05,4.53e-05,4.634e-05,4.664e-05,4.968e-05,4.754e-05,4.722e-05,6.56e-05,5.534e-05,1.3366e-05,1.045e-05,1.6744e-05,1.2012e-05,1.8642e-05,1.6772e-05,2.524e-05,1.9874e-05,1.9338e-05,2.046e-05,2.948e-05,2.942e-05,2.486e-05,1.1464e-05,2.078e-05,4.524e-05,3.182e-05,5.496e-05,3.968e-05,5.05e-05
758,3.5e-05,3.034e-05,2.226e-05,8.69e-06,3.06e-05,0,1.5786e-05,2.168e-05,1.5142e-05,2.508e-05,5.576e-05,4.786e-05,4.53e-05,3.564e-05,4.72e-05,4.682e-05,3.918e-05,5.052e-05,6.834e-05,5.776e-05,1.1622e-05,1.0834e-05,1.5202e-05,1.3622e-05,1.6216e-05,2.104e-05,2.576e-05,1.9018e-05,1.7982e-05,2.218e-05,3.196e-05,1.7292e-05,2.436e-05,2.526e-05,2.386e-05,4.418e-05,3.076e-05,6.052e-05,3.492e-05,5.29e-05
760,3.83e-05,3.076e-05,2.064e-05,1.2e-05,2.452e-05,1.5866e-05,2.32e-05,3.006e-05,2.444e-05,2.736e-05,5.104e-05,4.96e-05,4.318e-05,4.064e-05,5.4e-05,5.624e-05,4.942e-05,4.898e-05,6.624e-05,5.808e-05,1.038e-05,1.2644e-05,1.819e-05,1.6768e-05,1.9444e-05,1.934e-05,3.12e-05,2.404e-05,1.6964e-05,1.9594e-05,2.354e-05,2.526e-05,4.5e-05,2.322e-05,7e-06,4.436e-05,3.594e-05,5.47e-05,3.418e-05,5.118e-05
762,2.052e-05,3.67e-05,1.6088e-05,3.046e-05,1.6162e-05,1.1966e-05,2.074e-05,2.174e-05,2.402e-05,2.614e-05,4.62e-05,5.78e-05,3.922e-05,4.256e-05,5.01e-05,4.898e-05,4.654e-05,4.952e-05,5.872e-05,5.506e-05,1.4354e-05,1.1578e-05,1.9108e-05,1.9268e-05,1.8492e-05,2.102e-05,3.258e-05,1.9522e-05,1.6096e-05,2.266e-05,6.95e-06,9.262e-06,5.38e-05,2.19e-05,4.84e-06,5.11e-05,1.7972e-05,6.104e-05,4.072e-05,4.864e-05
764,3.166e-05,4.776e-05,1.83e-05,3.14e-05,2.23e-05,1.259e-06,2.27e-05,2.172e-05,2.412e-05,1.7818e-05,5.548e-05,5.678e-05,5.16e-05,3.61e-05,4.658e-05,4.752e-05,5.728e-05,5.424e-05,6.41e-05,5.122e-05,1.2876e-05,1.1914e-05,1.4682e-05,1.8838e-05,1.7818e-05,2.318e-05,3.238e-05,2.214e-05,1.8558e-05,2.178e-05,2.5e-05,2.18e-05,4.524e-05,2.98e-05,1.485e-05,5.132e-05,3.95e-05,6.002e-05,5.72e-05,5.346e-05
766,4.744e-05,5.664e-05,1.5106e-05,4.328e-05,2.14e-05,7.728e-06,1.8116e-05,2.146e-05,3.17e-05,2.704e-05,6.16e-05,4.984e-05,5.202e-05,4.246e-05,4.352e-05,4.914e-05,5.724e-05,6.236e-05,5.878e-05,5.18e-05,1.7202e-05,1.196e-05,1.5324e-05,1.8428e-05,1.7288e-05,1.8086e-05,3.566e-05,2.356e-05,1.6404e-05,2.18e-05,1.0394e-05,3.816e-05,4.51e-05,3.118e-05,2.248e-05,5.718e-05,4.164e-05,6.624e-05,4.638e-05,7.434e-05
768,4.464e-05,5.91e-05,2.44e-05,5.102e-05,2.04e-05,1.046e-05,3.468e-05,2.866e-05,2.34e-05,3.046e-05,6.97e-05,5.632e-05,4.812e-05,4.278e-05,3.534e-05,4.316e-05,4.168e-05,5.86e-05,6.464e-05,4.214e-05,1.984e-05,1.2486e-05,1.6918e-05,1.3284e-05,1.7374e-05,1.9958e-05,3.148e-05,1.9776e-05,1.6826e-05,2.074e-05,1.3794e-05,4.006e-05,3.526e-05,1.6434e-05,2.576e-05,6.9e-05,4.9e-05,7.208e-05,2.682e-05,7.786e-05
770,6.366e-05,5.28e-05,1.4918e-05,4.336e-05,3.538e-05,8.124e-06,2.568e-05,2.392e-05,3.138e-05,3.42e-05,5.868e-05,6.424e-05,3.36e-05,3.35e-05,4.174e-05,4.844e-05,4.662e-05,5.966e-05,5.69e-05,4.688e-05,2.124e-05,9.832e-06,1.3506e-05,1.7458e-05,1.8342e-05,2.1e-05,2.52e-05,2.03e-05,1.3748e-05,2.73e-05,6.294e-05,4.348e-05,4.518e-05,4.386e-05,1.5784e-05,5.96e-05,6.026e-05,6.864e-05,3.778e-05,6.986e-05
772,5.978e-05,5.546e-05,2.412e-05,3.108e-05,3.178e-05,1.0822e-05,3.454e-05,2.5e-05,3.552e-05,2.032e-05,6.114e-05,5.41e-05,3.68e-05,4.608e-05,4.364e-05,5.712e-05,4.572e-05,5.724e-05,4.708e-05,3.64e-05,2.782e-05,1.5228e-05,1.4908e-05,2.122e-05,1.5266e-05,1.779e-05,2.784e-05,2.082e-05,1.235e-05,2.268e-05,6.348e-05,4.618e-05,3.616e-05,3.708e-05,1.5418e-05,7.966e-05,6.178e-05,5.602e-05,3.464e-05,7.64e-05
774,4.4e-05,5.374e-05,3.19e-05,3.382e-05,2.814e-05,2.268e-05,4.534e-05,4.156e-05,3.726e-05,2.636e-05,6.672e-05,5.288e-05,4.704e-05,4.644e-05,4.902e-05,4.048e-05,3.174e-05,6.65e-05,3.652e-05,4.014e-05,2.626e-05,1.2002e-05,1.3362e-05,2.078e-05,1.1294e-05,1.7888e-05,2.678e-05,1.0418e-05,1.1364e-05,2.798e-05,6.11e-05,4.79e-05,3.208e-05,5.484e-05,1.8292e-05,0.00011114,6.286e-05,5.66e-05,4.76e-05,8.45e-05
776,6.56e-05,6.318e-05,4.816e-05,3.83e-05,2.526e-05,2.382e-05,4.986e-05,3.806e-05,4.57e-05,3.27e-05,5.756e-05,6.448e-05,4.962e-05,4.672e-05,3.354e-05,4.184e-05,2.512e-05,5.542e-05,4.25e-05,3.964e-05,2.836e-05,1.1634e-05,1.291e-05,1.9996e-05,1.2446e-05,1.706e-05,2.738e-05,1.1898e-05,1.6596e-05,1.5808e-05,5.302e-05,5.65e-05,4.022e-05,5.258e-05,2.576e-05,0.00011096,6.392e-05,5.872e-05,6.666e-05,9.866e-05
778,6.796e-05,6.484e-05,4.304e-05,3.16e-05,4.276e-05,1.4948e-05,5.162e-05,2.684e-05,5.396e-05,2.696e-05,5.708e-05,5.714e-05,2.982e-05,5.49e-05,3.4e-05,5.346e-05,3.192e-05,5.7e-05,4.316e-05,3.278e-05,2.592e-05,1.742e-05,1.7136e-05,1.995e-05,1.1802e-05,1.6532e-05,2.688e-05,1.9542e-05,2.364e-05,2.59e-05,7.908e-05,7.836e-05,4.714e-05,4.256e-05,3.368e-05,0.0001235,0.00010532,8.884e-05,5.054e-05,0.00010832
780,6.416e-05,6.912e-05,3.202e-05,1.6866e-05,5.206e-05,4.044e-05,5.324e-05,4.35e-05,6.232e-05,2.678e-05,5.65e-05,6.514e-05,4.02e-05,5.404e-05,2.96e-05,5.912e-05,2.878e-05,6.11e-05,2.484e-05,4.118e-05,2.938e-05,1.7142e-05,1.462e-05,1.6456e-05,8.084e-06,1.9374e-05,2.208e-05,1.605e-05,1.9186e-05,2.12e-05,0.0001339,5.416e-05,6.114e-05,2.26e-05,4.252e-05,0.00015086,0.00010872,9.728e-05,7.256e-05,0.00012174
