Wavelength [nm],Background (Mel),Modulation (Mel),Background (LMS),Modulation (LMS)380,1.141e-05,5.34e-06,7.592e-06,9.764e-06,1.4936e-05,3.156e-06,8.334e-06,3.708e-06,1.0948e-05,1.0684e-05,1.2692e-05,1.1886e-05,1.9152e-05,6.076e-06,1.0554e-05,1.4116e-05,1.1236e-05,1.2366e-05,1.1692e-05,1.433e-05,0,3.32e-06,6.17e-06,1.6812e-06,5.41e-06,4.652e-06,5.406e-06,2.602e-06,4.064e-06,2.996e-06,2.36e-05,1.5278e-05,2.146e-05,1.4948e-05,1.9506e-05,1.3166e-05,1.0402e-05,1.915e-05,1.0628e-05,2.868e-05
382,1.479e-05,7.146e-06,6.142e-06,5.264e-06,1.3412e-05,2.116e-06,2.82e-06,3.172e-06,9.164e-06,1.0222e-05,1.2968e-05,9.968e-06,1.771e-05,1.1032e-05,1.1322e-05,1.5146e-05,1.3332e-05,1.4692e-05,1.2244e-05,1.1336e-05,0,3.426e-06,4.282e-06,2.366e-06,4.16e-06,4.91e-06,6.146e-06,2.834e-06,4.07e-06,3.114e-06,2.206e-05,2.074e-05,1.742e-05,8.46e-06,1.659e-05,1.5708e-05,1.2596e-05,1.5862e-05,6.22e-06,3.032e-05
384,1.3722e-05,8.876e-06,6.248e-06,7.224e-06,1.3188e-05,4.97e-06,3.348e-06,6.004e-06,6.122e-06,9.676e-06,1.164e-05,7.108e-06,1.774e-05,1.1008e-05,1.034e-05,1.2516e-05,1.371e-05,9.542e-06,9.816e-06,1.1592e-05,1.9982e-07,3.102e-06,4.746e-06,2.126e-06,4.158e-06,5.938e-06,5.458e-06,3.704e-06,2.17e-06,3.978e-06,2.036e-05,1.6854e-05,1.6042e-05,6.146e-06,1.1688e-05,1.9526e-05,9.84e-06,1.1774e-05,6.366e-06,3.238e-05
386,1.422e-05,8.42e-06,5.918e-06,1.1764e-05,1.4502e-05,2.346e-06,4.494e-06,7.52e-06,7.476e-06,6.182e-06,1.5386e-05,7.024e-06,1.6506e-05,1.0112e-05,1.1756e-05,1.4978e-05,1.2354e-05,1.1508e-05,9.172e-06,1.486e-05,1.2556e-06,2.45e-06,4.574e-06,3.052e-06,4.156e-06,6.264e-06,4.492e-06,3.284e-06,4.178e-06,2.874e-06,1.4768e-05,2.134e-05,1.6966e-05,8.576e-06,1.8916e-05,2.048e-05,8.3e-06,1.2798e-05,1.0796e-05,3.168e-05
388,1.2748e-05,9.198e-06,6.024e-06,5.686e-06,1.2752e-05,4.298e-06,3.322e-06,5.31e-06,4.328e-06,6.65e-06,1.396e-05,7.656e-06,2.05e-05,7.656e-06,1.0664e-05,1.6394e-05,1.1792e-05,1.23e-05,1.255e-05,1.6906e-05,1.7296e-06,2.534e-06,3.806e-06,3.228e-06,3.228e-06,4.736e-06,4.282e-06,3.044e-06,4.176e-06,3.714e-06,1.4064e-05,1.5484e-05,1.6388e-05,7.514e-06,2.342e-05,1.846e-05,7.466e-06,1.1422e-05,8.356e-06,2.944e-05
390,1.0148e-05,9.178e-06,8.272e-06,3.668e-06,9.876e-06,5.848e-06,3.408e-06,6.816e-06,2.5e-06,6.306e-06,1.165e-05,7.322e-06,1.7588e-05,6.994e-06,9.684e-06,1.5716e-05,1.0698e-05,1.1904e-05,1.3722e-05,1.5914e-05,8.08e-07,3.598e-06,3.224e-06,1.34e-06,2.494e-06,6.01e-06,5.2e-06,2.7e-06,4.052e-06,4.428e-06,1.4036e-05,1.1068e-05,1.5998e-05,4.812e-06,2.118e-05,2.136e-05,7.254e-06,1.0186e-05,6.052e-06,3.116e-05
392,8.822e-06,1.0098e-05,8.712e-06,7.384e-06,1.5178e-05,3.078e-06,4.274e-06,5.34e-06,3.18e-06,7.632e-06,1.3328e-05,8.468e-06,1.6934e-05,8.322e-06,9.43e-06,1.6146e-05,9.386e-06,9.308e-06,1.2686e-05,1.473e-05,1.8736e-06,2.764e-06,3.312e-06,1.2336e-07,2.27e-06,6.232e-06,4.78e-06,4.558e-06,4.226e-06,3.734e-06,1.4372e-05,1.0778e-05,9.59e-06,2.152e-06,2.34e-05,1.9562e-05,9.162e-06,9.262e-06,5.894e-06,3.442e-05
394,8.606e-06,8.386e-06,7.944e-06,4.636e-06,1.5006e-05,7.134e-06,2.276e-06,9.512e-06,2.586e-06,3.83e-06,1.329e-05,4.858e-06,1.0994e-05,8.264e-06,7.924e-06,1.4292e-05,9.022e-06,9.34e-06,1.1178e-05,1.6366e-05,2.728e-06,3.052e-06,3.052e-06,1.0764e-06,2.872e-06,3.972e-06,4.428e-06,4.92e-06,5.586e-06,2.882e-06,1.1102e-05,9.786e-06,1.9564e-05,5.984e-06,2.38e-05,2.066e-05,1.1224e-05,1.2456e-05,5.75e-06,2.902e-05
396,4.252e-06,7.636e-06,7.338e-06,4.576e-06,1.452e-05,5.054e-06,2.742e-07,9.53e-06,3.19e-06,3.616e-06,1.1934e-05,6.696e-06,1.227e-05,7.556e-06,1.0754e-05,1.0706e-05,9.606e-06,1.1146e-05,1.248e-05,1.476e-05,2.742e-06,1.9626e-06,3.424e-06,6.616e-07,1.8904e-06,3.622e-06,4.322e-06,3.74e-06,3.59e-06,3.592e-06,7.338e-06,1.3836e-05,1.7852e-05,4.95e-06,2.624e-05,1.7054e-05,3.904e-06,1.0252e-05,7.888e-06,2.942e-05
398,5.764e-06,6.296e-06,1.4506e-06,6.19e-06,1.0948e-05,5.304e-06,3e-06,8.258e-06,5.386e-06,3.962e-06,1.132e-05,5.338e-06,1.2014e-05,8.438e-06,1.0992e-05,1.4626e-05,7.922e-06,6.452e-06,1.2772e-05,1.7146e-05,3.09e-06,2.118e-06,1.9164e-06,7.08e-07,1.3876e-06,5.648e-06,4.33e-06,3.616e-06,3.154e-06,2.652e-06,1.229e-05,8.474e-06,1.4492e-05,6.786e-07,2.58e-05,1.674e-05,7.548e-06,1.7004e-05,7.92e-06,2.878e-05
400,4.256e-06,7.744e-06,4.426e-06,5.446e-06,1.1828e-05,3.75e-06,4.628e-06,1.316e-05,1.3564e-06,3.988e-06,1.2154e-05,5.124e-06,9.526e-06,6.832e-06,1.0446e-05,1.3114e-05,9.298e-06,1.133e-05,1.2746e-05,1.293e-05,3.406e-06,3.13e-06,2.436e-06,9.412e-07,2.38e-06,5.284e-06,3.17e-06,3.686e-06,3.36e-06,1.6262e-06,1.0024e-05,9.686e-06,1.7234e-05,4.508e-07,2.332e-05,1.1614e-05,7.286e-06,1.2668e-05,5.596e-06,2.438e-05
402,4.584e-06,9.398e-06,8.71e-06,4.7e-06,9.514e-06,5.91e-06,7.52e-06,1.1604e-05,2.794e-06,5.372e-06,1.0354e-05,5.932e-06,9.912e-06,6.728e-06,1.062e-05,1.2856e-05,9.372e-06,1.02e-05,1.045e-05,1.2772e-05,4.066e-06,3.654e-06,2.61e-06,2.982e-07,1.53e-06,5.256e-06,2.554e-06,3.724e-06,3.722e-06,2.664e-06,6.83e-06,1.0166e-05,1.8814e-05,3.34e-06,2.108e-05,1.1236e-05,8.248e-06,1.1236e-05,6.684e-06,2.076e-05
404,1.9092e-06,6.03e-06,6.314e-06,6.952e-06,8.844e-06,4.898e-06,6.988e-06,1.2436e-05,2.874e-06,5.182e-06,9.842e-06,8.976e-06,9.336e-06,8.976e-06,1.2404e-05,1.2568e-05,8.8e-06,9.018e-06,1.1248e-05,1.3212e-05,5.048e-06,2.71e-06,3.166e-06,3.652e-07,2.97e-06,4.662e-06,2.026e-06,5.132e-06,3.894e-06,2.736e-06,1.0666e-05,9.112e-06,1.45e-05,7.74e-06,1.9092e-05,1.6962e-05,1.0018e-05,1.166e-05,8.98e-06,2.232e-05
406,1.7372e-06,8.628e-06,7.818e-06,5.974e-06,9.194e-06,5.254e-06,5.86e-06,1.1982e-05,4.754e-06,4.362e-06,9.244e-06,5.934e-06,7.922e-06,6.712e-06,1.249e-05,1.1664e-05,6.778e-06,9.98e-06,1.0146e-05,1.1646e-05,5.09e-06,3.274e-06,2.766e-06,1.1758e-06,2.29e-06,4.304e-06,2.25e-06,5.874e-06,4.838e-06,3.418e-06,1.1542e-05,6.866e-06,1.2984e-05,6.498e-06,2.222e-05,2.198e-05,9.394e-06,1.1652e-05,1.1824e-05,2.206e-05
408,3.932e-06,8.4e-06,5.356e-06,4.576e-06,9.152e-06,6.788e-06,7.734e-06,1.3218e-05,3.108e-06,5.948e-06,1.0296e-05,6.564e-06,6.68e-06,6.276e-06,1.0312e-05,1.1132e-05,7.716e-06,1.0484e-05,9.836e-06,9.478e-06,5.168e-06,3.432e-06,2.274e-06,8.714e-07,1.9436e-06,3.686e-06,2.266e-06,5.668e-06,4.254e-06,4.046e-06,1.1774e-05,1.1084e-05,1.7652e-05,5.716e-06,2.422e-05,1.8154e-05,9.926e-06,1.2298e-05,1.1988e-05,2.082e-05
410,7.34e-06,1.0268e-05,6.01e-06,5.654e-06,1.0888e-05,8.834e-06,6.654e-06,1.4448e-05,6.628e-06,6.404e-06,6.322e-06,9.11e-06,6.028e-06,7.056e-06,1.0394e-05,8.764e-06,4.16e-06,1.024e-05,1.0192e-05,1.035e-05,5.766e-06,3.198e-06,1.9488e-06,1.5942e-06,2.316e-06,4.626e-06,2.042e-06,4.902e-06,4.018e-06,3.906e-06,8.282e-06,1.6174e-05,1.307e-05,1.083e-05,1.944e-05,1.9482e-05,1.395e-05,1.1586e-05,1.307e-05,1.7368e-05
412,6.702e-06,7.754e-06,9.68e-06,9.9e-06,1.0044e-05,9.046e-06,7.07e-06,1.7262e-05,7.478e-06,6.218e-06,7.522e-06,6.012e-06,5.878e-06,6.954e-06,1.0008e-05,8.958e-06,6.09e-06,9.646e-06,8.992e-06,9.194e-06,5.416e-06,3.512e-06,2.764e-06,1.6006e-06,3.112e-06,3.368e-06,3.11e-06,6.05e-06,4.528e-06,3.758e-06,1.0622e-05,1.4054e-05,1.9752e-05,1.3404e-05,2.572e-05,1.9186e-05,1.4502e-05,1.7328e-05,1.3118e-05,1.9406e-05
414,1.0084e-05,1.6616e-05,1.3034e-05,1.0022e-05,1.484e-05,1.4416e-05,1.3524e-05,1.7864e-05,1.0762e-05,1.2602e-05,8.862e-06,8.496e-06,7.148e-06,9.28e-06,1.0502e-05,8.26e-06,1.0324e-05,1.2274e-05,8.328e-06,1.0256e-05,5.406e-06,2.828e-06,1.1044e-06,3.642e-06,2.692e-06,4.11e-06,4.372e-06,6.058e-06,4.018e-06,2.858e-06,2.078e-05,2.266e-05,2.532e-05,2.606e-05,3.382e-05,2.326e-05,2.314e-05,2.112e-05,2.408e-05,2.588e-05
416,2.774e-05,3.44e-05,3.356e-05,2.916e-05,3.312e-05,3.198e-05,2.786e-05,3.344e-05,2.92e-05,2.64e-05,1.5524e-05,1.3774e-05,1.0166e-05,1.618e-05,1.629e-05,1.2498e-05,1.332e-05,1.568e-05,1.2806e-05,1.4036e-05,7.188e-06,4.056e-06,2.996e-06,3.594e-06,3.456e-06,4.556e-06,3.834e-06,6.178e-06,4.51e-06,3.292e-06,4.44e-05,5.078e-05,5.134e-05,5.022e-05,5.716e-05,4.584e-05,4.584e-05,4.216e-05,4.408e-05,4.69e-05
418,7.02e-05,7.408e-05,7.264e-05,7.276e-05,7.276e-05,6.59e-05,6.444e-05,7.012e-05,6.518e-05,6.168e-05,2.494e-05,2.362e-05,2.086e-05,2.658e-05,2.464e-05,2.206e-05,1.997e-05,2.152e-05,2.182e-05,2.316e-05,7.078e-06,4.884e-06,3.714e-06,4.054e-06,4.444e-06,5.488e-06,4.558e-06,6.612e-06,5.728e-06,4.324e-06,0.00010058,0.00010322,0.00010544,0.00010712,0.00011246,9.196e-05,9.342e-05,9.138e-05,9.482e-05,9.278e-05
420,0.00013712,0.00014168,0.00013938,0.00013686,0.00013976,0.00012118,0.00012428,0.00012708,0.00012002,0.00012102,4.124e-05,4.098e-05,3.796e-05,4.432e-05,4.18e-05,3.658e-05,3.504e-05,3.796e-05,3.638e-05,3.696e-05,7.196e-06,6.338e-06,4.93e-06,5.698e-06,5.442e-06,6.524e-06,5.362e-06,8.258e-06,6.56e-06,5.29e-06,0.00019444,0.00019608,0.00019764,0.0001978,0.0002024,0.00016966,0.00017188,0.00017286,0.00017614,0.00017398
422,0.0002206,0.0002238,0.0002224,0.0002176,0.0002208,0.0001951,0.0001973,0.00019858,0.00019384,0.00019396,6.298e-05,6.34e-05,5.898e-05,6.5e-05,6.476e-05,5.43e-05,5.312e-05,5.792e-05,5.628e-05,5.556e-05,9.302e-06,7.89e-06,6.45e-06,7.474e-06,6.378e-06,7.306e-06,6.592e-06,8.848e-06,6.882e-06,6.5e-06,0.0003214,0.0003264,0.0003268,0.000326,0.0003292,0.000284,0.000287,0.0002846,0.000286,0.0002862
424,0.000303,0.000304,0.000306,0.0003038,0.0003028,0.0002716,0.0002702,0.0002746,0.0002702,0.0002662,8.15e-05,8.368e-05,8.258e-05,8.59e-05,8.6e-05,7.404e-05,7.256e-05,7.678e-05,7.368e-05,7.552e-05,1.1502e-05,9.086e-06,9.104e-06,9.96e-06,8.916e-06,1.0198e-05,8.86e-06,9.852e-06,9.782e-06,8.626e-06,0.0004876,0.00049,0.0004896,0.0004902,0.0004936,0.0004288,0.0004312,0.0004324,0.000435,0.0004304
426,0.0003812,0.000385,0.0003812,0.0003816,0.0003826,0.0003434,0.0003432,0.000343,0.0003424,0.0003362,0.00010398,0.00010712,0.00010282,0.00010662,0.00010556,9.326e-05,9.184e-05,9.48e-05,9.296e-05,9.232e-05,1.4578e-05,1.2238e-05,1.155e-05,1.303e-05,1.201e-05,1.2194e-05,1.1888e-05,1.2972e-05,1.2014e-05,1.093e-05,0.0006958,0.0006998,0.0007018,0.0007024,0.0007002,0.0006108,0.000616,0.0006164,0.0006188,0.0006154
428,0.000454,0.0004576,0.0004536,0.000453,0.0004514,0.0004062,0.0004058,0.0004074,0.0004058,0.0004022,0.00012452,0.00012654,0.0001225,0.00012746,0.00012546,0.0001116,0.00011214,0.00011218,0.00011186,0.00010948,1.682e-05,1.5814e-05,1.5724e-05,1.7522e-05,1.6694e-05,1.5252e-05,1.5032e-05,1.581e-05,1.4336e-05,1.4244e-05,0.0009328,0.0009328,0.0009342,0.0009362,0.0009354,0.0008216,0.0008272,0.0008276,0.0008254,0.0008268
430,0.000506,0.0005084,0.0005036,0.0005052,0.0005046,0.000455,0.000453,0.0004568,0.000455,0.0004516,0.000141,0.00014322,0.00013902,0.00014438,0.00014246,0.00012576,0.00012634,0.0001272,0.00012656,0.00012562,2.172e-05,1.9802e-05,1.977e-05,2.018e-05,1.9746e-05,1.8236e-05,1.756e-05,1.8342e-05,1.8224e-05,1.7822e-05,0.001138,0.0011354,0.0011382,0.0011396,0.001135,0.0010082,0.0010142,0.0010158,0.0010144,0.0010124
432,0.0005216,0.000523,0.0005196,0.0005228,0.0005188,0.0004694,0.000472,0.000473,0.0004716,0.0004678,0.00014754,0.0001486,0.00014496,0.00014968,0.00014672,0.00013134,0.00013118,0.0001344,0.0001316,0.00013222,2.434e-05,2.25e-05,2.296e-05,2.382e-05,2.308e-05,2.12e-05,2.068e-05,2.168e-05,2.158e-05,2.156e-05,0.001266,0.0012624,0.0012662,0.0012648,0.0012644,0.0011288,0.0011352,0.001134,0.0011364,0.001133
434,0.0004754,0.0004768,0.0004762,0.0004776,0.0004726,0.000434,0.0004364,0.0004358,0.0004374,0.0004322,0.00013818,0.00013926,0.00013544,0.00014066,0.00013788,0.00012414,0.0001247,0.00012694,0.00012464,0.00012542,2.674e-05,2.486e-05,2.66e-05,2.684e-05,2.574e-05,2.386e-05,2.308e-05,2.426e-05,2.376e-05,2.424e-05,0.0012878,0.0012826,0.0012882,0.0012852,0.001286,0.0011568,0.0011626,0.0011622,0.0011608,0.0011578
436,0.0003646,0.0003642,0.0003662,0.0003658,0.000364,0.0003394,0.00034,0.000339,0.0003414,0.0003364,0.00011178,0.00011474,0.00010986,0.00011418,0.00011306,0.0001028,0.00010362,0.00010466,0.00010144,0.00010236,2.876e-05,2.768e-05,2.846e-05,2.876e-05,2.768e-05,2.61e-05,2.532e-05,2.594e-05,2.534e-05,2.588e-05,0.0012088,0.0012036,0.001208,0.0012048,0.0012036,0.0010932,0.0010962,0.0010976,0.0010954,0.0010922
438,0.0002266,0.0002272,0.0002272,0.0002274,0.0002282,0.0002142,0.0002178,0.0002166,0.0002166,0.0002126,7.93e-05,8.128e-05,7.756e-05,8.102e-05,7.962e-05,7.282e-05,7.432e-05,7.442e-05,7.226e-05,7.218e-05,3.04e-05,2.96e-05,2.986e-05,3.08e-05,3.006e-05,2.806e-05,2.73e-05,2.794e-05,2.744e-05,2.698e-05,0.0010618,0.0010558,0.0010578,0.001056,0.001055,0.0009628,0.000967,0.0009686,0.0009686,0.0009614
440,0.00011592,0.00011666,0.0001145,0.0001159,0.00011492,0.00011058,0.00011386,0.00011084,0.0001144,0.00010894,5.45e-05,5.566e-05,5.138e-05,5.616e-05,5.406e-05,5.168e-05,5.188e-05,5.128e-05,5.048e-05,4.966e-05,3.132e-05,3.14e-05,3.138e-05,3.268e-05,3.234e-05,2.87e-05,2.884e-05,2.908e-05,2.91e-05,2.932e-05,0.000855,0.0008496,0.000856,0.0008536,0.0008524,0.0007838,0.0007858,0.000789,0.0007846,0.0007812
442,6.29e-05,5.912e-05,6.018e-05,6.138e-05,6.038e-05,5.848e-05,6.198e-05,5.786e-05,6.068e-05,5.75e-05,4.382e-05,4.468e-05,4.176e-05,4.656e-05,4.384e-05,4.112e-05,4.2e-05,4.158e-05,4.036e-05,3.956e-05,3.248e-05,3.238e-05,3.336e-05,3.342e-05,3.278e-05,3.08e-05,2.982e-05,2.996e-05,2.974e-05,3.044e-05,0.0006038,0.0005978,0.0006038,0.0005998,0.0005954,0.0005594,0.0005586,0.0005598,0.000558,0.0005552
444,5.028e-05,4.852e-05,4.976e-05,5.01e-05,4.904e-05,4.666e-05,4.81e-05,4.65e-05,4.624e-05,4.48e-05,4.318e-05,4.656e-05,4.21e-05,4.488e-05,4.392e-05,4.124e-05,4.206e-05,4.012e-05,4.014e-05,3.958e-05,3.398e-05,3.362e-05,3.526e-05,3.504e-05,3.474e-05,3.21e-05,3.204e-05,3.136e-05,3.17e-05,3.22e-05,0.0003728,0.0003722,0.0003738,0.0003708,0.0003662,0.0003512,0.0003528,0.0003516,0.0003506,0.0003474
446,5.162e-05,4.86e-05,5.098e-05,5.016e-05,4.992e-05,4.566e-05,4.826e-05,4.404e-05,4.776e-05,4.48e-05,4.648e-05,4.768e-05,4.438e-05,4.762e-05,4.574e-05,4.336e-05,4.392e-05,4.29e-05,4.2e-05,4.13e-05,3.63e-05,3.562e-05,3.736e-05,3.72e-05,3.718e-05,3.444e-05,3.46e-05,3.34e-05,3.33e-05,3.394e-05,0.0002068,0.0002042,0.000206,0.0002044,0.0002006,0.0001955,0.0001962,0.00019618,0.000194,0.00019094
448,5.69e-05,5.234e-05,5.23e-05,5.338e-05,5.392e-05,4.788e-05,5.13e-05,4.736e-05,5.084e-05,4.918e-05,5.052e-05,5.094e-05,4.954e-05,5.212e-05,4.968e-05,4.784e-05,4.886e-05,4.646e-05,4.532e-05,4.582e-05,3.98e-05,3.988e-05,4.15e-05,4.05e-05,4.06e-05,3.748e-05,3.772e-05,3.644e-05,3.722e-05,3.722e-05,0.000128,0.00012434,0.00012656,0.00012354,0.0001211,0.00011694,0.00011664,0.00011672,0.00011604,0.0001141
450,6.118e-05,5.764e-05,5.682e-05,5.834e-05,5.986e-05,5.214e-05,5.508e-05,5.138e-05,5.346e-05,5.298e-05,5.574e-05,5.73e-05,5.528e-05,5.824e-05,5.55e-05,5.254e-05,5.29e-05,5.114e-05,5.004e-05,5.166e-05,4.406e-05,4.492e-05,4.606e-05,4.51e-05,4.52e-05,4.166e-05,4.158e-05,4.076e-05,4.17e-05,4.234e-05,0.00010366,0.00010058,0.00010432,0.0001019,9.762e-05,9.588e-05,9.514e-05,9.452e-05,9.6e-05,9.288e-05
452,6.544e-05,6.098e-05,6.006e-05,6.134e-05,6.386e-05,5.538e-05,5.728e-05,5.332e-05,5.618e-05,5.708e-05,6.162e-05,5.968e-05,6.016e-05,6.092e-05,5.942e-05,5.644e-05,5.64e-05,5.418e-05,5.47e-05,5.542e-05,4.796e-05,4.872e-05,5.018e-05,4.88e-05,4.954e-05,4.512e-05,4.492e-05,4.376e-05,4.484e-05,4.57e-05,0.00010062,9.978e-05,0.00010328,0.0001003,9.414e-05,9.094e-05,9.332e-05,9.482e-05,9.432e-05,9.126e-05
454,6.554e-05,6.002e-05,6.218e-05,6.36e-05,6.448e-05,5.81e-05,5.858e-05,5.374e-05,5.792e-05,5.756e-05,6.388e-05,6.276e-05,6.24e-05,6.462e-05,6.218e-05,5.746e-05,5.894e-05,5.71e-05,5.754e-05,5.654e-05,5.082e-05,5.022e-05,5.244e-05,5.192e-05,5.202e-05,4.684e-05,4.708e-05,4.584e-05,4.718e-05,4.746e-05,0.00010222,9.942e-05,0.0001033,0.0001009,9.27e-05,8.906e-05,9.162e-05,9.17e-05,9.036e-05,9.054e-05
456,6.728e-05,6.186e-05,6.352e-05,6.278e-05,6.544e-05,5.69e-05,5.87e-05,5.496e-05,5.706e-05,5.802e-05,6.65e-05,6.56e-05,6.456e-05,6.744e-05,6.58e-05,6.018e-05,6.166e-05,6.026e-05,6.008e-05,5.89e-05,5.312e-05,5.438e-05,5.564e-05,5.498e-05,5.538e-05,5.046e-05,5.06e-05,4.856e-05,4.926e-05,5.038e-05,0.00010564,0.00010092,0.00010188,0.00010152,9.814e-05,9.198e-05,9.164e-05,9.596e-05,9.202e-05,9.25e-05
458,7.064e-05,6.64e-05,6.722e-05,6.634e-05,6.868e-05,5.99e-05,6.122e-05,5.908e-05,6.042e-05,6.114e-05,7.284e-05,7.016e-05,7.052e-05,7.116e-05,6.91e-05,6.584e-05,6.538e-05,6.344e-05,6.416e-05,6.464e-05,5.752e-05,5.814e-05,5.958e-05,5.956e-05,6e-05,5.432e-05,5.446e-05,5.274e-05,5.362e-05,5.442e-05,0.00010546,0.00010442,0.00010546,0.00010452,9.998e-05,9.468e-05,9.726e-05,9.916e-05,9.728e-05,9.586e-05
460,7.45e-05,7.15e-05,7.152e-05,7.208e-05,7.272e-05,6.388e-05,6.532e-05,6.158e-05,6.346e-05,6.586e-05,7.812e-05,7.48e-05,7.61e-05,7.752e-05,7.416e-05,7.024e-05,7.168e-05,6.942e-05,6.828e-05,6.898e-05,6.262e-05,6.328e-05,6.434e-05,6.356e-05,6.466e-05,5.85e-05,5.868e-05,5.694e-05,5.826e-05,5.826e-05,0.00010926,0.0001104,0.00010944,0.00011022,0.0001035,9.898e-05,0.00010126,0.0001004,0.00010014,0.0001012
462,7.95e-05,7.54e-05,7.434e-05,7.616e-05,7.646e-05,6.72e-05,6.728e-05,6.59e-05,6.728e-05,6.884e-05,8.284e-05,8.13e-05,8.234e-05,8.25e-05,7.998e-05,7.554e-05,7.702e-05,7.5e-05,7.45e-05,7.508e-05,6.674e-05,6.852e-05,6.906e-05,6.798e-05,6.904e-05,6.252e-05,6.334e-05,6.072e-05,6.24e-05,6.262e-05,0.00011308,0.0001145,0.00011328,0.00011236,0.00010872,0.00010276,0.0001035,0.00010352,0.0001046,0.0001041
464,8.314e-05,7.91e-05,7.802e-05,7.96e-05,8.156e-05,7.114e-05,7.26e-05,6.896e-05,6.986e-05,7.456e-05,8.958e-05,8.782e-05,8.838e-05,8.782e-05,8.652e-05,8.13e-05,8.084e-05,7.996e-05,7.992e-05,8.132e-05,7.214e-05,7.316e-05,7.392e-05,7.38e-05,7.422e-05,6.678e-05,6.778e-05,6.554e-05,6.786e-05,6.728e-05,0.00011656,0.00011742,0.00011774,0.00011794,0.00011292,0.00010788,0.00010716,0.00010652,0.00010842,0.00010832
466,8.896e-05,8.17e-05,8.414e-05,8.572e-05,8.79e-05,7.634e-05,7.666e-05,7.284e-05,7.546e-05,7.81e-05,9.578e-05,9.526e-05,9.612e-05,9.34e-05,9.26e-05,8.64e-05,8.832e-05,8.672e-05,8.664e-05,8.586e-05,7.824e-05,7.906e-05,7.904e-05,8.02e-05,7.922e-05,7.188e-05,7.284e-05,7.156e-05,7.32e-05,7.238e-05,0.0001219,0.0001231,0.00012114,0.00012376,0.0001183,0.00011064,0.00011264,0.00011268,0.00011304,0.00011378
468,9.298e-05,8.778e-05,9.134e-05,9.144e-05,9.21e-05,8.176e-05,8.01e-05,7.812e-05,7.76e-05,8.266e-05,0.00010524,0.00010442,0.0001052,0.0001039,0.00010268,9.424e-05,9.668e-05,9.422e-05,9.416e-05,9.484e-05,8.516e-05,8.712e-05,8.684e-05,8.686e-05,8.766e-05,7.81e-05,7.902e-05,7.81e-05,7.93e-05,7.952e-05,0.00013226,0.00012958,0.00013198,0.00013016,0.0001279,0.00011796,0.0001182,0.0001191,0.00011812,0.00012026
470,9.522e-05,8.91e-05,9.204e-05,9.25e-05,9.358e-05,8.326e-05,8.26e-05,8.016e-05,8.142e-05,8.374e-05,0.00011058,0.00010892,0.0001124,0.0001094,0.00011006,0.0001,0.00010022,9.896e-05,9.908e-05,0.00010002,8.912e-05,9.124e-05,9.09e-05,9.054e-05,9.19e-05,8.194e-05,8.29e-05,8.21e-05,8.374e-05,8.342e-05,0.00013518,0.00013398,0.00013316,0.00013278,0.00013394,0.00012042,0.00012152,0.00012336,0.00012092,0.00012398
472,9.378e-05,9.03e-05,9.244e-05,9.16e-05,9.67e-05,8.322e-05,8.214e-05,8.088e-05,8.086e-05,8.43e-05,0.0001124,0.0001107,0.0001145,0.00011196,0.00011064,0.00010266,0.00010096,9.994e-05,0.00010184,0.00010104,9.16e-05,9.406e-05,9.346e-05,9.304e-05,9.394e-05,8.424e-05,8.494e-05,8.43e-05,8.542e-05,8.51e-05,0.00013496,0.00013214,0.00013374,0.00013414,0.00013086,0.00011914,0.00011962,0.00011884,0.00012024,0.00012096
474,9.258e-05,8.996e-05,9.374e-05,9.156e-05,9.518e-05,8.206e-05,8.004e-05,7.962e-05,7.902e-05,8.422e-05,0.00011464,0.00011384,0.00011762,0.00011412,0.00011226,0.00010348,0.00010334,0.00010216,0.00010216,0.00010292,9.306e-05,9.508e-05,9.484e-05,9.468e-05,9.546e-05,8.552e-05,8.592e-05,8.522e-05,8.598e-05,8.6e-05,0.0001344,0.00013004,0.00013388,0.00012906,0.00013024,0.00011688,0.00011638,0.00011624,0.00011908,0.00012034
476,8.854e-05,8.68e-05,9.118e-05,8.958e-05,9.16e-05,7.976e-05,7.834e-05,7.782e-05,7.684e-05,8.096e-05,0.00011224,0.00011292,0.00011644,0.0001128,0.00011158,0.00010252,0.0001016,0.00010048,0.00010142,0.000103,9.314e-05,9.488e-05,9.374e-05,9.376e-05,9.5e-05,8.514e-05,8.516e-05,8.502e-05,8.542e-05,8.476e-05,0.000128,0.0001269,0.0001266,0.00012174,0.00012566,0.0001131,0.00011056,0.00011274,0.00011688,0.000116
478,8.652e-05,8.612e-05,8.99e-05,8.732e-05,8.884e-05,7.936e-05,7.746e-05,7.732e-05,7.52e-05,7.944e-05,0.0001146,0.00011286,0.00011684,0.00011236,0.00011286,0.0001032,0.00010298,0.00010246,0.00010298,0.0001032,9.422e-05,9.544e-05,9.434e-05,9.436e-05,9.56e-05,8.548e-05,8.606e-05,8.662e-05,8.568e-05,8.57e-05,0.00012274,0.0001223,0.00012274,0.00012082,0.00012166,0.00011104,0.00010884,0.00010994,0.00011394,0.00011064
480,9.198e-05,8.836e-05,9.158e-05,9.014e-05,9.086e-05,8.188e-05,7.952e-05,7.948e-05,7.788e-05,8.254e-05,0.00012298,0.00011964,0.00012382,0.00012128,0.00011814,0.0001103,0.00010792,0.00010748,0.00010854,0.00010934,9.946e-05,0.00010114,0.00010066,0.0001001,0.00010136,9.096e-05,9.152e-05,9.14e-05,8.984e-05,9.05e-05,0.00012528,0.00012746,0.00012622,0.0001226,0.00012672,0.00011322,0.0001104,0.0001099,0.00011212,0.0001137
482,9.346e-05,9.366e-05,9.672e-05,9.534e-05,9.622e-05,8.848e-05,8.476e-05,8.51e-05,8.36e-05,8.448e-05,0.00013258,0.0001297,0.0001335,0.00013068,0.0001301,0.0001174,0.00011802,0.00011742,0.000119,0.00011822,0.00010906,0.00011042,0.00010954,0.00010966,0.00011074,9.818e-05,9.882e-05,9.888e-05,9.902e-05,9.866e-05,0.00012972,0.00013012,0.00013208,0.00012734,0.00012982,0.00011886,0.0001135,0.00011542,0.00012,0.00011828
484,9.494e-05,9.622e-05,9.904e-05,9.692e-05,9.796e-05,8.792e-05,8.58e-05,8.702e-05,8.472e-05,8.74e-05,0.00013816,0.00013546,0.00014162,0.00013712,0.00013598,0.00012266,0.00012446,0.00012424,0.00012378,0.00012328,0.00011548,0.0001166,0.00011492,0.00011552,0.00011616,0.00010446,0.00010424,0.0001046,0.00010468,0.00010448,0.00013206,0.00013004,0.00013296,0.00013192,0.00013098,0.00011758,0.0001157,0.00011648,0.00012218,0.00011944
486,9.546e-05,9.522e-05,0.0001001,9.656e-05,9.6e-05,8.784e-05,8.53e-05,8.904e-05,8.456e-05,8.802e-05,0.00014408,0.00014394,0.00014742,0.00014396,0.00014332,0.00013006,0.00013156,0.00013116,0.00012964,0.0001307,0.0001223,0.00012304,0.00012176,0.0001217,0.00012262,0.00010938,0.00010942,0.00011096,0.0001101,0.00011004,0.00013274,0.00013068,0.0001313,0.00012856,0.00013244,0.00011912,0.0001165,0.00011478,0.00012096,0.00011854
488,9.71e-05,9.648e-05,0.00010028,9.762e-05,9.692e-05,8.92e-05,8.594e-05,8.954e-05,8.574e-05,8.834e-05,0.00017074,0.00016948,0.00017364,0.0001695,0.00016902,0.00015192,0.0001509,0.00015194,0.00015106,0.00015226,0.00014516,0.00014556,0.00014486,0.00014494,0.00014604,0.00012918,0.00012888,0.00012984,0.00012942,0.00012896,0.00013564,0.00013404,0.00013414,0.00013188,0.00013508,0.0001216,0.0001194,0.00011924,0.00012406,0.00012146
490,9.996e-05,0.00010038,0.00010286,0.0001019,0.00010144,9.168e-05,8.988e-05,9.418e-05,8.906e-05,9.15e-05,0.0002524,0.0002512,0.0002554,0.0002514,0.0002516,0.0002206,0.0002196,0.0002218,0.0002204,0.0002224,0.0002208,0.0002214,0.0002206,0.0002208,0.0002214,0.00019294,0.00019262,0.00019398,0.00019344,0.00019316,0.00014682,0.00014478,0.00014712,0.00014452,0.00014682,0.00013048,0.00012968,0.00012988,0.00013514,0.00013116
492,0.00010618,0.00010784,0.00011226,0.00010836,0.00010894,9.742e-05,9.562e-05,9.998e-05,9.572e-05,9.692e-05,0.0004342,0.0004344,0.000435,0.0004334,0.0004334,0.0003778,0.0003786,0.0003792,0.0003788,0.0003818,0.0003868,0.0003858,0.0003854,0.000385,0.0003852,0.000333,0.0003346,0.000336,0.000336,0.0003362,0.0001696,0.000166,0.00016756,0.0001653,0.00016784,0.00015104,0.00014824,0.00014818,0.00015114,0.0001485
494,0.0001126,0.00011204,0.00011432,0.00011244,0.0001116,0.00010446,0.00010132,0.00010478,0.00010274,0.0001012,0.0007686,0.0007728,0.0007748,0.000768,0.0007694,0.000674,0.0006722,0.0006746,0.0006746,0.0006768,0.0006524,0.000652,0.0006518,0.0006498,0.000651,0.0005674,0.0005688,0.0005696,0.0005714,0.0005722,0.0002004,0.00019724,0.0001988,0.00019594,0.0002018,0.00017596,0.00017482,0.00017656,0.00017878,0.00017584
496,0.00011168,0.00011808,0.0001183,0.0001135,0.00011666,0.00010588,0.00010396,0.00010838,0.00010536,0.00010498,0.0012402,0.0012444,0.001246,0.0012398,0.00124,0.0010886,0.0010888,0.0010902,0.0010926,0.0010954,0.0009178,0.0009176,0.0009166,0.0009154,0.0009166,0.0008072,0.0008084,0.000809,0.0008104,0.0008114,0.0002322,0.0002306,0.0002314,0.00023,0.0002328,0.0002042,0.0002042,0.0002046,0.0002108,0.0002036
498,0.00011992,0.00012494,0.00012694,0.00011976,0.00012424,0.00011072,0.00010956,0.0001133,0.00011196,0.00011092,0.0018844,0.0018888,0.0018896,0.0018826,0.0018834,0.0016586,0.0016608,0.001663,0.0016642,0.0016688,0.0011518,0.0011512,0.0011512,0.0011496,0.0011504,0.001021,0.0010226,0.0010228,0.001024,0.0010256,0.0002672,0.0002654,0.000267,0.000268,0.0002712,0.0002382,0.0002368,0.0002378,0.0002422,0.0002352
500,0.0001334,0.0001366,0.0001396,0.00013396,0.0001358,0.00012224,0.00012022,0.0001252,0.00012374,0.00012244,0.002658,0.002664,0.002664,0.002654,0.002656,0.002354,0.002354,0.002358,0.00236,0.002364,0.0013504,0.0013494,0.00135,0.0013476,0.0013482,0.0012048,0.0012056,0.0012064,0.0012072,0.0012086,0.0003072,0.0003058,0.0003058,0.0003076,0.0003098,0.0002758,0.0002738,0.000273,0.0002794,0.000273
502,0.00014674,0.00015162,0.00015284,0.00014786,0.00015,0.00013448,0.00013496,0.00013936,0.00013706,0.00013564,0.003416,0.003422,0.003422,0.003412,0.003414,0.003042,0.003044,0.003046,0.003048,0.003056,0.0015054,0.001504,0.0015048,0.0015026,0.0015026,0.0013496,0.0013508,0.0013508,0.0013518,0.0013528,0.0003426,0.000342,0.0003414,0.0003436,0.000346,0.0003078,0.0003088,0.0003078,0.0003124,0.0003066
504,0.00016006,0.00016098,0.0001639,0.00015846,0.00016086,0.00014492,0.00014684,0.00015006,0.0001482,0.00014674,0.004004,0.00401,0.00401,0.004,0.004002,0.00359,0.00359,0.003594,0.003596,0.0036,0.0016048,0.001603,0.0016038,0.0016022,0.0016018,0.001444,0.0014452,0.0014448,0.001447,0.0014462,0.0003664,0.0003686,0.000368,0.0003678,0.0003694,0.0003318,0.0003332,0.0003324,0.0003352,0.0003282
506,0.00016638,0.00016676,0.00017062,0.0001664,0.00016692,0.0001531,0.00015238,0.00015778,0.0001562,0.0001547,0.004324,0.004332,0.00433,0.004324,0.004326,0.0039,0.0039,0.003906,0.003906,0.003912,0.001612,0.0016114,0.0016114,0.0016094,0.00161,0.0014592,0.0014606,0.0014596,0.0014614,0.0014604,0.0003736,0.0003736,0.0003722,0.0003696,0.000374,0.000338,0.0003356,0.0003352,0.0003398,0.0003356
508,0.00017074,0.00017288,0.00017414,0.00016958,0.00017396,0.0001551,0.00015784,0.0001597,0.00015876,0.00015912,0.004328,0.004334,0.004334,0.004328,0.00433,0.00392,0.00392,0.003924,0.003924,0.00393,0.001464,0.001464,0.0014646,0.0014628,0.0014636,0.001339,0.00134,0.0013398,0.0013392,0.0013384,0.0003542,0.0003556,0.0003536,0.0003534,0.0003572,0.0003262,0.0003228,0.0003232,0.0003256,0.0003224
510,0.0001715,0.00017602,0.00017596,0.00017154,0.00017476,0.00015584,0.0001619,0.00016074,0.00016038,0.0001618,0.004082,0.00409,0.00409,0.004082,0.004086,0.003714,0.003712,0.003716,0.003718,0.00372,0.0011842,0.0011842,0.0011854,0.0011842,0.0011842,0.0010964,0.0010972,0.0010968,0.0010958,0.0010944,0.0003256,0.000325,0.000326,0.000324,0.0003272,0.0002976,0.0002978,0.0002996,0.0002984,0.000296
512,0.00017058,0.00017436,0.00017512,0.00017198,0.0001731,0.00015646,0.00016042,0.00015992,0.00015988,0.00016134,0.003602,0.003608,0.003608,0.003602,0.003608,0.003298,0.003296,0.003298,0.003298,0.003302,0.0008574,0.0008578,0.000858,0.0008574,0.0008578,0.0008026,0.0008036,0.0008028,0.0008022,0.0008012,0.000292,0.0002942,0.0002938,0.000293,0.0002932,0.000267,0.0002674,0.0002688,0.0002696,0.0002656
514,0.00016356,0.00016652,0.00016848,0.0001655,0.00016742,0.00015122,0.00015444,0.00015486,0.00015392,0.00015556,0.00284,0.002842,0.002842,0.00284,0.002846,0.00263,0.002626,0.00263,0.00263,0.00263,0.0005814,0.0005816,0.0005818,0.0005818,0.0005812,0.0005482,0.000549,0.000548,0.000548,0.000547,0.0002584,0.0002606,0.0002592,0.0002584,0.0002588,0.0002366,0.000236,0.0002388,0.0002394,0.000235
516,0.00015286,0.00015608,0.00015532,0.00015358,0.0001558,0.00014182,0.000144,0.00014574,0.00014456,0.00014446,0.0018646,0.0018656,0.001867,0.0018666,0.0018716,0.0017584,0.0017552,0.001758,0.001755,0.0017558,0.000384,0.0003836,0.0003838,0.0003844,0.0003838,0.000363,0.0003636,0.000363,0.000363,0.0003618,0.0002242,0.0002258,0.0002248,0.0002236,0.0002238,0.0002038,0.0002048,0.0002066,0.0002054,0.0002034
518,0.00014346,0.00014544,0.00014538,0.00014242,0.00014514,0.00013216,0.00013416,0.00013584,0.00013288,0.00013538,0.0009238,0.0009238,0.0009236,0.0009258,0.0009278,0.000888,0.0008848,0.0008882,0.0008868,0.0008846,0.0002458,0.0002466,0.0002458,0.0002468,0.0002456,0.0002316,0.0002326,0.0002326,0.0002326,0.0002316,0.00019362,0.00019912,0.000197,0.00019636,0.00019522,0.00017766,0.0001781,0.00018106,0.00017974,0.00017784
520,0.00014026,0.0001425,0.0001402,0.000139,0.0001429,0.00012834,0.00012996,0.00013258,0.00012972,0.00013184,0.0004224,0.0004222,0.000422,0.0004236,0.0004256,0.0004048,0.0004026,0.0004046,0.0004028,0.0004048,0.00018244,0.00018272,0.00018296,0.00018336,0.00018236,0.0001701,0.00017084,0.0001705,0.0001704,0.0001698,0.0001827,0.00018772,0.00018544,0.00018602,0.0001865,0.00016978,0.00017036,0.00017122,0.00016994,0.00016864
522,0.00014082,0.00014252,0.00014142,0.00014124,0.0001446,0.00012966,0.00013058,0.00013194,0.00013044,0.00013326,0.0002672,0.000267,0.0002654,0.0002676,0.0002698,0.0002498,0.0002476,0.0002516,0.0002476,0.0002496,0.00016398,0.00016428,0.00016422,0.000165,0.00016412,0.00015084,0.00015202,0.0001515,0.00015156,0.00015092,0.00018568,0.00018618,0.00018614,0.00018584,0.00018512,0.00016954,0.00016914,0.00017146,0.00016934,0.00016856
524,0.00014364,0.00014528,0.00014488,0.00014358,0.00014642,0.0001312,0.0001326,0.00013434,0.00013272,0.00013506,0.000233,0.0002338,0.0002318,0.0002348,0.000236,0.0002146,0.0002142,0.0002156,0.0002132,0.0002148,0.00015972,0.00015974,0.00015994,0.00016084,0.0001598,0.00014604,0.00014694,0.00014656,0.00014648,0.00014626,0.0001877,0.00018928,0.00018888,0.00018728,0.00018726,0.0001724,0.00017176,0.00017444,0.00017176,0.00017126
526,0.00014858,0.00015016,0.00014792,0.00014792,0.00015114,0.0001348,0.00013642,0.00013682,0.00013682,0.0001372,0.000229,0.0002298,0.000228,0.0002302,0.0002312,0.0002104,0.0002084,0.0002098,0.0002086,0.0002102,0.0001588,0.0001589,0.00015926,0.00015966,0.0001592,0.00014572,0.00014596,0.00014508,0.00014544,0.00014568,0.00019134,0.00019484,0.00019298,0.00019092,0.0001919,0.00017598,0.00017516,0.00017792,0.00017598,0.00017546
528,0.0001518,0.00015306,0.00015098,0.00015254,0.00015442,0.0001394,0.00013938,0.00014012,0.00013872,0.00013996,0.0002298,0.0002292,0.0002274,0.0002296,0.000231,0.0002092,0.0002092,0.0002088,0.0002076,0.0002098,0.00015796,0.00015756,0.00015822,0.00015882,0.0001583,0.00014544,0.00014522,0.00014448,0.00014516,0.00014482,0.00019572,0.00019796,0.00019604,0.00019706,0.00019422,0.00018052,0.000176,0.00018134,0.00017818,0.00018008
530,0.00015516,0.00015468,0.0001535,0.00015536,0.00015602,0.00014096,0.00014428,0.00014344,0.0001421,0.00014346,0.0002278,0.000226,0.0002246,0.000227,0.0002296,0.0002076,0.0002074,0.0002082,0.0002068,0.000208,0.00015748,0.00015772,0.00015814,0.00015884,0.00015812,0.00014518,0.00014514,0.00014404,0.00014488,0.0001446,0.00019838,0.0002004,0.0002018,0.0002008,0.00019962,0.00018288,0.00018262,0.00018482,0.00018168,0.00018298
532,0.00015854,0.0001579,0.00015854,0.00016008,0.0001599,0.0001437,0.00014602,0.00014508,0.00014222,0.00014548,0.0002264,0.000223,0.0002218,0.0002238,0.000226,0.0002056,0.000206,0.0002052,0.000204,0.0002056,0.00015794,0.00015858,0.00015892,0.0001592,0.00015896,0.0001454,0.00014594,0.00014478,0.00014554,0.00014508,0.000205,0.0002048,0.0002062,0.0002062,0.000206,0.00018802,0.00018496,0.00018876,0.00018716,0.00018656
534,0.00016262,0.00016216,0.00016244,0.00016374,0.00016272,0.00014812,0.00014952,0.000149,0.00014608,0.00015014,0.0002232,0.0002204,0.0002198,0.0002222,0.0002226,0.0002032,0.0002034,0.0002042,0.000202,0.0002034,0.00015858,0.0001589,0.000159,0.00015982,0.00015978,0.00014604,0.00014586,0.0001454,0.00014594,0.00014566,0.0002118,0.0002102,0.0002104,0.0002116,0.00021,0.00019422,0.00018988,0.00019288,0.00019294,0.00019236
536,0.00016726,0.00016536,0.00016592,0.00016714,0.00016498,0.00015172,0.00015252,0.00015116,0.0001492,0.00015386,0.0002218,0.0002202,0.0002184,0.0002216,0.0002232,0.0002028,0.0002038,0.0002044,0.000202,0.0002028,0.00015932,0.00016002,0.00016022,0.00016118,0.0001607,0.00014662,0.00014776,0.00014628,0.00014716,0.00014674,0.0002182,0.0002154,0.000219,0.0002178,0.000216,0.0001996,0.00019672,0.00019846,0.00019902,0.00019784
538,0.00017212,0.00016932,0.00016944,0.00017126,0.0001699,0.00015672,0.00015528,0.00015454,0.00015422,0.0001573,0.0002242,0.000222,0.000221,0.0002236,0.0002252,0.000205,0.0002052,0.000205,0.0002042,0.000204,0.00016094,0.00016138,0.0001623,0.0001623,0.00016252,0.00014804,0.00014952,0.000148,0.00014862,0.0001483,0.0002238,0.0002224,0.0002254,0.000226,0.0002254,0.0002078,0.0002026,0.0002058,0.0002068,0.0002056
540,0.00017698,0.0001751,0.00017402,0.000177,0.00017604,0.00016142,0.00016108,0.00016016,0.00015854,0.00016196,0.000227,0.000224,0.0002242,0.0002248,0.0002264,0.0002068,0.0002066,0.000207,0.0002064,0.000206,0.0001634,0.00016348,0.00016386,0.00016412,0.00016428,0.00014964,0.00015108,0.00014914,0.00015026,0.0001494,0.0002346,0.0002302,0.000235,0.0002344,0.0002344,0.0002142,0.000211,0.0002152,0.0002152,0.0002148
542,0.00018264,0.00018288,0.00018176,0.00018242,0.00018216,0.00016622,0.00016772,0.0001657,0.00016468,0.00016892,0.0002306,0.0002268,0.0002266,0.0002288,0.00023,0.0002098,0.0002106,0.0002098,0.0002086,0.0002098,0.00016536,0.0001657,0.00016668,0.00016676,0.00016688,0.00015182,0.00015224,0.00015076,0.00015168,0.00015154,0.0002454,0.0002446,0.000247,0.0002464,0.0002442,0.000224,0.0002238,0.0002246,0.0002258,0.0002246
544,0.00018972,0.00018822,0.00018592,0.00019006,0.0001875,0.00017168,0.0001713,0.00017146,0.00017044,0.0001724,0.0002326,0.0002294,0.0002294,0.0002304,0.0002308,0.0002116,0.0002122,0.0002124,0.0002108,0.0002114,0.00016816,0.0001682,0.00016954,0.00016894,0.00016932,0.00015412,0.0001547,0.0001538,0.00015408,0.00015402,0.0002586,0.0002564,0.0002616,0.0002588,0.0002588,0.0002376,0.0002356,0.0002386,0.0002382,0.0002376
546,0.00019482,0.0001929,0.00019306,0.00019394,0.00019242,0.0001773,0.00017656,0.00017696,0.0001753,0.00017796,0.0002332,0.0002308,0.0002308,0.0002306,0.0002314,0.0002116,0.0002134,0.0002118,0.0002124,0.0002116,0.00016974,0.00017018,0.00017108,0.00017038,0.00017092,0.00015554,0.00015646,0.00015524,0.0001558,0.00015544,0.0002734,0.0002732,0.0002764,0.000275,0.0002742,0.0002522,0.0002488,0.0002518,0.0002524,0.0002518
548,0.00019992,0.0002004,0.0002002,0.0002008,0.00019976,0.00018116,0.00018292,0.00018224,0.00018036,0.00018398,0.0002338,0.0002314,0.000231,0.0002314,0.0002326,0.0002122,0.0002138,0.0002128,0.0002126,0.0002122,0.00017192,0.00017204,0.00017286,0.00017234,0.00017248,0.00015728,0.00015838,0.00015626,0.0001576,0.000157,0.0002918,0.0002902,0.0002936,0.000292,0.000292,0.000268,0.0002648,0.0002672,0.000268,0.0002696
550,0.0002056,0.0002054,0.0002076,0.0002064,0.0002054,0.00018788,0.00018762,0.0001871,0.00018568,0.0001879,0.000235,0.000233,0.0002316,0.0002314,0.0002328,0.0002122,0.0002138,0.000213,0.0002134,0.0002128,0.0001735,0.0001733,0.0001748,0.00017322,0.00017436,0.00015862,0.00015946,0.00015812,0.00015892,0.00015838,0.0003132,0.0003104,0.0003134,0.0003114,0.0003136,0.000287,0.0002822,0.0002866,0.0002862,0.0002868
552,0.0002138,0.0002104,0.000213,0.0002128,0.0002128,0.00019562,0.00019472,0.00019304,0.00019276,0.00019416,0.000234,0.0002324,0.000233,0.0002314,0.0002312,0.0002132,0.000214,0.0002112,0.000213,0.0002124,0.00017534,0.00017538,0.00017574,0.00017444,0.00017632,0.00015986,0.00016094,0.0001593,0.00016024,0.00015966,0.0003392,0.000339,0.0003412,0.0003402,0.0003388,0.0003104,0.0003076,0.0003118,0.00031,0.0003098
554,0.0002232,0.0002194,0.0002208,0.0002212,0.000221,0.0002012,0.000202,0.00019912,0.0002,0.0002022,0.0002334,0.0002318,0.0002322,0.0002318,0.000231,0.000212,0.000214,0.000212,0.0002128,0.0002126,0.00017678,0.0001769,0.00017698,0.00017632,0.00017704,0.00016088,0.00016162,0.00016124,0.00016158,0.00016128,0.0003728,0.0003714,0.0003758,0.0003736,0.000373,0.0003412,0.000339,0.0003412,0.0003404,0.0003404
556,0.0002304,0.0002272,0.0002286,0.000229,0.0002292,0.0002098,0.0002056,0.0002072,0.000209,0.0002078,0.0002326,0.0002318,0.0002316,0.0002302,0.0002308,0.0002112,0.000213,0.0002118,0.0002124,0.0002118,0.00017786,0.0001774,0.00017796,0.00017682,0.00017752,0.0001616,0.00016208,0.00016168,0.00016202,0.00016206,0.0004192,0.0004178,0.0004198,0.0004184,0.0004206,0.0003806,0.000379,0.0003806,0.00038,0.0003816
558,0.000239,0.0002362,0.0002376,0.0002382,0.0002378,0.0002184,0.0002154,0.0002164,0.0002166,0.0002164,0.0002318,0.0002314,0.000232,0.0002302,0.0002296,0.0002108,0.0002126,0.0002106,0.000212,0.000211,0.00017866,0.00017832,0.00017896,0.0001776,0.00017868,0.00016262,0.00016284,0.00016186,0.0001628,0.00016244,0.0005222,0.0005204,0.0005236,0.0005226,0.0005226,0.0004682,0.000466,0.0004674,0.0004708,0.0004702
560,0.0002516,0.000249,0.0002492,0.0002488,0.0002492,0.0002274,0.0002258,0.0002256,0.000227,0.0002262,0.0002318,0.0002318,0.0002318,0.0002304,0.0002296,0.0002118,0.0002122,0.0002098,0.0002122,0.000211,0.00017914,0.00017938,0.00017988,0.00017868,0.00018002,0.0001634,0.0001638,0.00016318,0.00016372,0.00016352,0.0007974,0.0007956,0.0007966,0.0007966,0.0007974,0.0007008,0.0007018,0.0007032,0.0007068,0.0007068
562,0.0002644,0.0002608,0.0002616,0.0002616,0.0002622,0.000239,0.0002356,0.000236,0.0002392,0.0002364,0.0002328,0.0002318,0.0002316,0.0002302,0.0002298,0.0002112,0.0002118,0.0002112,0.0002126,0.000211,0.00018094,0.00018042,0.0001806,0.00017878,0.00018056,0.00016404,0.00016444,0.00016396,0.0001638,0.00016384,0.0014058,0.001404,0.0014014,0.0014032,0.0014038,0.0012308,0.001233,0.001237,0.0012382,0.00124
564,0.0002828,0.0002804,0.0002822,0.000281,0.0002822,0.0002578,0.0002524,0.0002558,0.000255,0.0002544,0.0002324,0.0002322,0.0002338,0.0002318,0.0002318,0.0002114,0.000213,0.0002108,0.000213,0.0002126,0.00018162,0.00018106,0.00018184,0.00017994,0.00018166,0.00016472,0.00016502,0.00016464,0.000165,0.0001648,0.00254,0.002538,0.002538,0.002536,0.002538,0.002236,0.002242,0.002246,0.002252,0.00225
566,0.0003132,0.0003094,0.0003118,0.00031,0.0003122,0.0002834,0.0002806,0.0002804,0.0002818,0.0002798,0.000234,0.000235,0.0002356,0.0002328,0.0002336,0.0002128,0.0002144,0.0002136,0.000215,0.0002138,0.00018306,0.00018276,0.0001837,0.0001821,0.0001833,0.00016626,0.00016606,0.0001666,0.00016652,0.00016634,0.00389,0.003886,0.003886,0.003886,0.003884,0.003452,0.003458,0.003466,0.003472,0.003468
568,0.0003662,0.0003628,0.0003662,0.0003644,0.000366,0.0003294,0.0003262,0.0003272,0.000328,0.0003268,0.0002366,0.000238,0.0002398,0.0002364,0.0002368,0.0002156,0.0002162,0.0002156,0.000218,0.000216,0.00018546,0.00018486,0.0001854,0.00018424,0.0001849,0.0001683,0.00016796,0.00016818,0.00016838,0.00016806,0.005334,0.00533,0.00533,0.005326,0.005328,0.00476,0.004766,0.004776,0.004782,0.004776
570,0.0004996,0.0004956,0.0004994,0.0004962,0.0004982,0.0004422,0.0004386,0.000441,0.000441,0.0004404,0.0002412,0.0002428,0.0002446,0.0002416,0.0002412,0.00022,0.0002194,0.0002196,0.0002212,0.0002204,0.00018744,0.00018762,0.00018758,0.00018644,0.00018716,0.00017004,0.0001697,0.00017042,0.00016988,0.00017042,0.006812,0.00681,0.006808,0.006802,0.006804,0.006102,0.006108,0.00612,0.006124,0.006118
572,0.0008386,0.0008352,0.000838,0.0008328,0.0008366,0.0007316,0.0007288,0.0007302,0.0007322,0.0007326,0.0002486,0.0002508,0.0002516,0.0002488,0.0002488,0.0002254,0.0002264,0.0002252,0.000228,0.0002274,0.00019088,0.0001911,0.00019086,0.0001898,0.00019036,0.0001726,0.0001724,0.0001732,0.00017272,0.0001731,0.008266,0.008264,0.008262,0.008254,0.008256,0.007428,0.007432,0.007446,0.00745,0.007442
574,0.0015818,0.001578,0.001579,0.0015726,0.0015758,0.001381,0.0013796,0.0013808,0.0013842,0.0013876,0.0002612,0.000264,0.000265,0.0002612,0.0002616,0.000237,0.0002378,0.000236,0.0002378,0.0002378,0.00019488,0.00019514,0.00019426,0.00019352,0.00019444,0.00017614,0.00017586,0.0001761,0.00017614,0.00017686,0.009692,0.009686,0.009688,0.009678,0.009682,0.008734,0.00874,0.008758,0.008758,0.00875
576,0.002746,0.002742,0.00274,0.002734,0.002736,0.002422,0.00242,0.00242,0.002424,0.002432,0.00028,0.0002828,0.0002834,0.0002806,0.0002818,0.000253,0.0002538,0.0002528,0.0002554,0.0002546,0.000201,0.0002006,0.0002,0.0001998,0.0002004,0.00018086,0.00018072,0.00018162,0.0001814,0.00018214,0.010928,0.010922,0.010924,0.010912,0.01092,0.009886,0.009888,0.00991,0.00991,0.009898
578,0.004002,0.003998,0.003996,0.00399,0.00399,0.00356,0.003558,0.003556,0.003562,0.003572,0.0003062,0.0003084,0.00031,0.0003072,0.0003068,0.000276,0.0002762,0.0002762,0.0002784,0.0002776,0.0002098,0.0002088,0.0002092,0.0002088,0.0002094,0.00018874,0.00018824,0.00018994,0.0001892,0.00018984,0.011742,0.011732,0.011738,0.011724,0.011732,0.010652,0.010654,0.010676,0.010674,0.010662
580,0.005306,0.005302,0.005298,0.005292,0.005294,0.004748,0.004744,0.004744,0.004748,0.004762,0.000344,0.0003476,0.000348,0.0003454,0.0003446,0.00031,0.00031,0.0003092,0.0003102,0.0003102,0.0002248,0.000224,0.0002238,0.0002234,0.0002238,0.0002012,0.000201,0.0002024,0.0002018,0.0002022,0.012236,0.012226,0.012232,0.012214,0.012226,0.01112,0.011124,0.011146,0.011144,0.011128
582,0.00657,0.006568,0.006562,0.006556,0.006558,0.005906,0.005902,0.005902,0.005904,0.00592,0.000411,0.0004164,0.0004154,0.000413,0.000413,0.0003688,0.000368,0.0003668,0.0003698,0.0003694,0.0002496,0.0002492,0.000248,0.000248,0.0002486,0.0002234,0.0002228,0.0002236,0.0002238,0.0002246,0.01247,0.012456,0.012464,0.012444,0.012458,0.011344,0.011348,0.011372,0.011366,0.011348
584,0.007728,0.007726,0.007718,0.00771,0.007718,0.006972,0.006968,0.006968,0.006968,0.006986,0.000558,0.0005636,0.0005622,0.0005578,0.0005578,0.000493,0.0004948,0.0004946,0.000497,0.0004966,0.000293,0.0002928,0.0002918,0.0002916,0.0002928,0.0002608,0.0002608,0.000262,0.0002614,0.000263,0.012512,0.012496,0.012506,0.012484,0.012498,0.011392,0.011392,0.01142,0.011412,0.011392
586,0.008776,0.008776,0.008766,0.00876,0.008764,0.00795,0.007944,0.007944,0.007946,0.007962,0.0008834,0.0008882,0.0008892,0.0008834,0.0008838,0.0007828,0.0007844,0.0007828,0.0007854,0.0007866,0.0003784,0.0003782,0.0003766,0.000377,0.0003776,0.0003348,0.0003342,0.000335,0.0003352,0.000337,0.012372,0.012356,0.012366,0.012344,0.012358,0.01127,0.011274,0.0113,0.011294,0.011268
588,0.009408,0.009408,0.009398,0.009394,0.009394,0.008552,0.008544,0.008546,0.008542,0.00856,0.0012804,0.0012862,0.0012866,0.0012806,0.001282,0.0011402,0.0011432,0.0011424,0.0011454,0.0011458,0.000494,0.0004944,0.0004924,0.0004928,0.0004932,0.000437,0.0004366,0.0004374,0.0004374,0.000439,0.01217,0.012156,0.012162,0.012142,0.012154,0.011092,0.011094,0.01112,0.011112,0.011086
590,0.009602,0.009604,0.009592,0.00959,0.00959,0.008758,0.00875,0.008752,0.008744,0.008764,0.0016454,0.0016518,0.0016512,0.0016454,0.0016464,0.001478,0.001481,0.0014792,0.0014822,0.0014842,0.0006438,0.0006434,0.0006424,0.0006426,0.0006426,0.0005696,0.0005692,0.0005704,0.0005704,0.000572,0.01189,0.011876,0.011884,0.011858,0.011876,0.01084,0.01084,0.01087,0.010862,0.010834
592,0.009188,0.009196,0.00918,0.00918,0.009176,0.00842,0.008412,0.008412,0.008406,0.008424,0.001882,0.0018898,0.0018882,0.0018822,0.001884,0.0017028,0.001706,0.0017056,0.0017074,0.0017078,0.0008332,0.0008324,0.0008312,0.0008312,0.0008318,0.0007382,0.0007378,0.0007384,0.0007386,0.0007406,0.011546,0.011536,0.011544,0.01152,0.011534,0.010528,0.01053,0.010558,0.01055,0.010524
594,0.00813,0.008142,0.008128,0.008128,0.008124,0.007496,0.007486,0.00749,0.00748,0.007496,0.0019898,0.0019958,0.001994,0.0019878,0.0019922,0.0018064,0.001808,0.0018062,0.0018106,0.0018104,0.0010636,0.0010624,0.0010616,0.0010616,0.0010612,0.0009438,0.0009434,0.0009438,0.0009446,0.000946,0.011158,0.011146,0.011152,0.01113,0.011142,0.010172,0.01017,0.0102,0.01019,0.010164
596,0.006444,0.006454,0.006442,0.006444,0.006442,0.00598,0.005974,0.005974,0.005964,0.005978,0.0019946,0.002,0.0019994,0.0019954,0.0019968,0.0018156,0.0018178,0.001816,0.001818,0.0018188,0.0013558,0.0013544,0.0013548,0.0013542,0.0013532,0.0012052,0.001206,0.0012058,0.001207,0.001209,0.010654,0.010642,0.01065,0.010628,0.010638,0.009708,0.009708,0.009736,0.00973,0.009704
598,0.004806,0.004816,0.004808,0.004812,0.004808,0.004486,0.004482,0.00448,0.004474,0.00448,0.0019228,0.0019294,0.0019282,0.0019236,0.001926,0.0017542,0.0017578,0.0017552,0.001757,0.001756,0.001653,0.0016516,0.0016522,0.001651,0.0016512,0.0014726,0.0014732,0.001473,0.0014754,0.0014772,0.010164,0.010152,0.01016,0.010142,0.01015,0.009258,0.009262,0.00929,0.00928,0.009256
600,0.003402,0.00341,0.003406,0.00341,0.003404,0.003186,0.003184,0.003184,0.003176,0.003182,0.0017556,0.001761,0.0017592,0.001756,0.001758,0.001607,0.001609,0.001608,0.00161,0.0016096,0.0019574,0.0019554,0.001956,0.0019542,0.0019546,0.001747,0.0017472,0.001748,0.0017496,0.0017524,0.009682,0.009672,0.009678,0.00966,0.009672,0.00882,0.008824,0.008844,0.008838,0.008814
602,0.002266,0.002272,0.00227,0.002276,0.00227,0.002134,0.002132,0.002132,0.002126,0.00213,0.0014632,0.0014662,0.0014656,0.0014632,0.0014666,0.0013496,0.0013498,0.00135,0.0013504,0.0013496,0.002254,0.002252,0.002254,0.002252,0.002252,0.002018,0.002018,0.00202,0.002022,0.002024,0.009204,0.009192,0.009202,0.009182,0.009194,0.008382,0.008388,0.008406,0.008402,0.008378
604,0.0013636,0.0013698,0.0013674,0.0013714,0.0013664,0.0012954,0.0012954,0.0012954,0.0012902,0.0012938,0.001131,0.0011332,0.0011302,0.0011308,0.0011346,0.0010442,0.0010458,0.0010456,0.0010452,0.001043,0.00254,0.002538,0.00254,0.002536,0.002538,0.00228,0.00228,0.00228,0.002284,0.002286,0.008722,0.008714,0.00872,0.0087,0.008712,0.00794,0.007948,0.007968,0.007962,0.00794
606,0.0006772,0.0006806,0.0006794,0.000682,0.0006802,0.0006478,0.000651,0.000649,0.000647,0.0006486,0.0010086,0.00101,0.0010092,0.0010074,0.0010088,0.0009102,0.000911,0.0009108,0.000911,0.000911,0.002804,0.002802,0.002802,0.0028,0.0028,0.002524,0.002526,0.002524,0.002528,0.00253,0.008146,0.008136,0.00814,0.008124,0.008134,0.007422,0.007428,0.007446,0.007442,0.007422
608,0.0003678,0.0003706,0.0003688,0.0003716,0.000369,0.0003496,0.0003502,0.0003488,0.0003496,0.0003498,0.0013924,0.0013946,0.0013944,0.00139,0.001393,0.0012264,0.0012298,0.0012294,0.0012312,0.0012338,0.002954,0.002952,0.002954,0.002952,0.002952,0.00267,0.00267,0.00267,0.002672,0.002674,0.00746,0.00745,0.007456,0.00744,0.007452,0.006816,0.006818,0.006834,0.00683,0.006814
610,0.0002784,0.0002792,0.0002762,0.0002808,0.0002774,0.0002582,0.0002584,0.0002604,0.000258,0.0002602,0.002198,0.0022,0.0022,0.002194,0.002196,0.001934,0.0019394,0.0019372,0.0019404,0.0019442,0.002972,0.002972,0.002974,0.002972,0.002972,0.002698,0.002698,0.002696,0.002698,0.0027,0.006624,0.006616,0.006622,0.006608,0.006618,0.006068,0.006072,0.006086,0.00608,0.006062
612,0.000257,0.000255,0.000253,0.0002594,0.0002542,0.0002354,0.000235,0.000239,0.0002356,0.0002382,0.003234,0.00324,0.003238,0.00323,0.003232,0.00286,0.002868,0.002864,0.002868,0.002874,0.002852,0.002852,0.002854,0.00285,0.002852,0.002598,0.002598,0.002596,0.0026,0.0026,0.005672,0.005666,0.005672,0.005656,0.005668,0.005212,0.005214,0.005226,0.00522,0.005204
614,0.000254,0.0002524,0.000251,0.0002576,0.0002528,0.0002318,0.000231,0.0002346,0.000231,0.000233,0.004356,0.004362,0.00436,0.004348,0.004352,0.00387,0.003878,0.003872,0.003878,0.003884,0.00259,0.00259,0.002594,0.00259,0.00259,0.002374,0.002372,0.00237,0.002372,0.002372,0.004684,0.00468,0.004686,0.00467,0.00468,0.004316,0.004318,0.004326,0.004322,0.004308
616,0.0002594,0.0002604,0.0002582,0.0002636,0.0002578,0.000235,0.0002366,0.0002396,0.0002372,0.0002396,0.005564,0.00557,0.005566,0.005556,0.00556,0.004962,0.004966,0.004966,0.004972,0.004976,0.002164,0.002166,0.002168,0.002166,0.002166,0.002,0.0019992,0.0019966,0.0019992,0.0019976,0.003624,0.003618,0.003624,0.003612,0.00362,0.00335,0.003348,0.003356,0.003354,0.00334
618,0.0002786,0.0002784,0.0002752,0.0002824,0.0002796,0.000254,0.000253,0.0002538,0.0002528,0.0002552,0.00666,0.006666,0.006664,0.006652,0.006654,0.005956,0.005964,0.005962,0.005968,0.005974,0.0016746,0.001676,0.0016788,0.0016764,0.0016772,0.0015642,0.0015626,0.0015596,0.0015608,0.0015592,0.002656,0.002652,0.002654,0.002644,0.002654,0.002464,0.002464,0.002468,0.002466,0.002458
620,0.0003166,0.0003156,0.0003132,0.00032,0.0003168,0.0002864,0.0002864,0.0002862,0.0002838,0.0002874,0.007596,0.0076,0.007598,0.007584,0.007592,0.006812,0.00682,0.006816,0.006826,0.00683,0.0011946,0.0011964,0.0011988,0.001197,0.0011972,0.0011288,0.0011272,0.0011252,0.001126,0.001123,0.0018292,0.0018238,0.0018284,0.0018204,0.0018278,0.001707,0.0017068,0.0017096,0.0017072,0.0017044
622,0.0003774,0.0003774,0.0003738,0.0003806,0.000378,0.0003378,0.0003384,0.0003396,0.0003372,0.000341,0.008374,0.00838,0.008378,0.008364,0.00837,0.007534,0.007542,0.007536,0.007548,0.007552,0.0007896,0.0007906,0.0007928,0.0007914,0.0007926,0.0007512,0.0007494,0.000748,0.0007494,0.0007464,0.0011628,0.001157,0.0011624,0.001156,0.0011644,0.0010888,0.0010898,0.0010908,0.0010898,0.0010882
624,0.0004626,0.0004612,0.0004596,0.0004646,0.0004624,0.0004146,0.000415,0.0004158,0.0004126,0.0004158,0.008914,0.00892,0.008918,0.008904,0.00891,0.008044,0.00805,0.008046,0.008056,0.008062,0.0005976,0.000598,0.0005994,0.0005976,0.0005986,0.0005554,0.000554,0.0005526,0.000555,0.000552,0.0008074,0.0008082,0.000808,0.0008024,0.0008084,0.0007458,0.0007454,0.0007434,0.0007476,0.0007468
626,0.000586,0.000586,0.0005824,0.00059,0.0005854,0.0005248,0.0005222,0.000524,0.0005234,0.0005258,0.009182,0.009186,0.009186,0.00917,0.009178,0.00831,0.008318,0.008312,0.008322,0.00833,0.000734,0.0007332,0.0007356,0.000733,0.000734,0.0006534,0.000653,0.0006528,0.0006556,0.0006546,0.000885,0.0008802,0.0008832,0.0008776,0.0008846,0.0007888,0.0007928,0.000788,0.0007946,0.0007972
628,0.0007418,0.0007372,0.0007352,0.0007408,0.0007368,0.0006616,0.00066,0.0006604,0.000661,0.0006616,0.00915,0.009154,0.009158,0.00914,0.009148,0.008302,0.008308,0.0083,0.008312,0.008318,0.001108,0.0011066,0.0011086,0.001106,0.0011074,0.0009776,0.0009794,0.000978,0.0009832,0.0009814,0.0012652,0.0012648,0.0012644,0.001262,0.0012652,0.0011252,0.0011284,0.0011264,0.0011326,0.0011344
630,0.0009078,0.0009006,0.0009018,0.0009052,0.000903,0.000812,0.0008078,0.0008118,0.0008096,0.0008122,0.008922,0.008928,0.00893,0.008914,0.008922,0.008112,0.008118,0.008112,0.008122,0.008128,0.001556,0.0015546,0.001557,0.0015526,0.0015544,0.001378,0.0013806,0.0013786,0.0013846,0.0013828,0.0017406,0.0017446,0.001743,0.0017392,0.0017416,0.0015566,0.001558,0.0015568,0.0015632,0.0015672
632,0.0010854,0.00108,0.0010778,0.0010848,0.0010818,0.0009746,0.00097,0.0009724,0.0009714,0.0009758,0.008564,0.008572,0.008574,0.008556,0.008566,0.007798,0.007806,0.0078,0.00781,0.007816,0.002026,0.002026,0.002028,0.002024,0.002024,0.0018038,0.0018056,0.0018038,0.0018106,0.001808,0.00225,0.002248,0.002248,0.00224,0.002246,0.002016,0.002018,0.002016,0.002024,0.002026
634,0.0012718,0.0012686,0.001266,0.001268,0.0012692,0.001144,0.00114,0.0011418,0.0011412,0.001143,0.008138,0.008148,0.008146,0.00813,0.00814,0.007422,0.00743,0.007422,0.007434,0.00744,0.002498,0.002496,0.0025,0.002494,0.002496,0.00223,0.002234,0.002232,0.00224,0.002236,0.002758,0.002756,0.002756,0.002748,0.002758,0.002476,0.00248,0.00248,0.002486,0.002484
636,0.0014734,0.001467,0.0014666,0.0014684,0.0014686,0.0013232,0.0013234,0.0013234,0.001323,0.0013262,0.007638,0.007646,0.007646,0.007636,0.00764,0.006976,0.00698,0.006974,0.006984,0.00699,0.002998,0.002996,0.003,0.002994,0.002996,0.002686,0.00269,0.002688,0.002694,0.002692,0.003296,0.003292,0.003296,0.003284,0.003294,0.002966,0.00297,0.002968,0.002978,0.002974
638,0.0016494,0.0016456,0.0016426,0.0016456,0.0016468,0.0014854,0.0014838,0.0014854,0.0014836,0.0014926,0.007188,0.007194,0.007194,0.007186,0.007188,0.006568,0.00657,0.006564,0.006572,0.006578,0.003424,0.003422,0.003426,0.003418,0.00342,0.003078,0.00308,0.00308,0.003086,0.003084,0.003738,0.00373,0.00374,0.003726,0.003738,0.003378,0.003378,0.003376,0.003386,0.00338
640,0.0018166,0.0018124,0.0018106,0.0018122,0.0018134,0.0016358,0.0016356,0.0016368,0.0016378,0.0016434,0.006792,0.006798,0.0068,0.00679,0.006792,0.006208,0.00621,0.006204,0.006212,0.00622,0.003756,0.003756,0.00376,0.003752,0.003754,0.00339,0.003394,0.00339,0.003398,0.003396,0.004044,0.00404,0.00404,0.004036,0.004046,0.003664,0.003666,0.003666,0.003672,0.00367
642,0.0019672,0.0019618,0.0019644,0.0019618,0.0019634,0.0017768,0.0017756,0.0017758,0.0017774,0.0017808,0.006432,0.00644,0.006442,0.00643,0.006434,0.005882,0.005882,0.005878,0.005884,0.00589,0.003966,0.003966,0.00397,0.003962,0.003966,0.003592,0.003594,0.003592,0.0036,0.003596,0.00416,0.00416,0.004164,0.004158,0.004166,0.003782,0.003788,0.00379,0.003792,0.003788
644,0.002108,0.002108,0.002104,0.002106,0.002108,0.0019088,0.0019092,0.001907,0.0019098,0.001915,0.006114,0.006122,0.006124,0.006112,0.006118,0.005592,0.005594,0.005586,0.005596,0.0056,0.004046,0.004048,0.004052,0.004042,0.004046,0.003678,0.003678,0.003676,0.003682,0.00368,0.00412,0.004116,0.004122,0.004112,0.004124,0.003756,0.00376,0.003764,0.003764,0.003762
646,0.002266,0.002264,0.002266,0.002262,0.002266,0.002054,0.002056,0.002052,0.002056,0.00206,0.005792,0.005796,0.005796,0.00579,0.00579,0.005298,0.0053,0.005294,0.0053,0.005306,0.00397,0.003972,0.003978,0.003968,0.00397,0.003624,0.003624,0.003622,0.003628,0.003624,0.003948,0.00394,0.003948,0.00394,0.00395,0.003614,0.003612,0.003616,0.003616,0.003612
648,0.002396,0.00239,0.002394,0.00239,0.002392,0.002172,0.002176,0.002172,0.002178,0.00218,0.005538,0.005544,0.005542,0.005536,0.005536,0.00507,0.005072,0.005064,0.005072,0.005076,0.00376,0.003764,0.003768,0.003762,0.003764,0.003446,0.003448,0.003446,0.00345,0.003444,0.003682,0.003678,0.003686,0.003678,0.003688,0.003382,0.00338,0.003384,0.003384,0.003382
650,0.002496,0.002492,0.002494,0.002494,0.002498,0.00227,0.00227,0.00227,0.002272,0.002276,0.005288,0.005294,0.005292,0.005286,0.005288,0.004844,0.004844,0.004838,0.004846,0.004848,0.003408,0.003412,0.003416,0.003408,0.003412,0.00314,0.00314,0.00314,0.003142,0.003136,0.003302,0.003294,0.0033,0.003296,0.003304,0.003038,0.003038,0.003038,0.00304,0.003036
652,0.002564,0.002564,0.002566,0.002564,0.002568,0.002334,0.002336,0.002332,0.002338,0.002338,0.005008,0.005014,0.005014,0.005006,0.005008,0.00459,0.00459,0.004586,0.004594,0.004594,0.00292,0.002926,0.002928,0.002922,0.002926,0.002706,0.002708,0.002708,0.002708,0.002704,0.00282,0.002814,0.00282,0.00282,0.00282,0.002604,0.0026,0.002604,0.002604,0.0026
654,0.002614,0.00261,0.002614,0.002608,0.002612,0.002378,0.002378,0.002374,0.002382,0.002384,0.004726,0.004732,0.004732,0.004724,0.004728,0.004332,0.004334,0.00433,0.004336,0.004338,0.002362,0.002366,0.002366,0.002362,0.002366,0.002204,0.002202,0.002202,0.002202,0.002198,0.002298,0.002294,0.002296,0.002296,0.002298,0.002128,0.002128,0.002128,0.002128,0.002124
656,0.002656,0.002658,0.002652,0.002652,0.002656,0.002418,0.002422,0.002416,0.002426,0.002424,0.004456,0.004464,0.004458,0.004452,0.004458,0.00408,0.004082,0.00408,0.004086,0.004086,0.0017512,0.0017536,0.0017536,0.0017516,0.0017522,0.001643,0.0016434,0.0016428,0.0016436,0.0016386,0.0017332,0.0017252,0.0017314,0.001736,0.0017334,0.0016176,0.0016146,0.001616,0.0016142,0.001608
658,0.002694,0.002694,0.00269,0.00269,0.002692,0.002454,0.002456,0.00245,0.00246,0.00246,0.004252,0.00426,0.004256,0.004252,0.004254,0.003896,0.003898,0.003892,0.003898,0.003898,0.0012572,0.0012604,0.0012598,0.001257,0.001258,0.0011866,0.0011878,0.0011876,0.0011872,0.0011838,0.0012716,0.001267,0.001272,0.001279,0.0012732,0.0011944,0.0011942,0.0011928,0.0011908,0.0011846
660,0.00272,0.00272,0.002718,0.002718,0.00272,0.002478,0.00248,0.002478,0.002482,0.002484,0.004074,0.004086,0.00408,0.004074,0.004074,0.003734,0.003734,0.00373,0.003734,0.003736,0.0008258,0.0008296,0.0008282,0.0008266,0.0008278,0.0007882,0.0007874,0.0007888,0.0007872,0.000785,0.0008564,0.0008538,0.0008596,0.000868,0.000859,0.0008098,0.0008136,0.000812,0.0008078,0.0008044
662,0.002726,0.002722,0.00272,0.002722,0.002722,0.002488,0.002486,0.002484,0.00249,0.00249,0.003902,0.00391,0.003906,0.003898,0.0039,0.003574,0.003574,0.003574,0.003576,0.003576,0.0004742,0.0004754,0.0004746,0.0004754,0.0004754,0.0004588,0.000459,0.0004598,0.000458,0.000456,0.0005142,0.0005126,0.0005142,0.0005202,0.0005128,0.0004942,0.0004944,0.0004918,0.000487,0.0004836
664,0.002662,0.002666,0.002662,0.002662,0.002662,0.002438,0.002438,0.002434,0.002444,0.00244,0.003672,0.003678,0.003676,0.003672,0.003672,0.003368,0.00337,0.003368,0.003372,0.00337,0.000236,0.00024,0.0002372,0.0002386,0.0002384,0.00023,0.00023,0.0002324,0.0002302,0.0002294,0.0002816,0.0002816,0.000283,0.0002946,0.0002798,0.0002696,0.0002702,0.0002706,0.000264,0.0002658
666,0.002486,0.002492,0.002486,0.002486,0.002486,0.002284,0.002284,0.002284,0.002292,0.002282,0.003332,0.003342,0.003338,0.003332,0.00333,0.003068,0.003068,0.003066,0.003066,0.003066,0.0001391,0.00014062,0.0001392,0.00014108,0.0001409,0.00013318,0.00013354,0.00013396,0.00013318,0.00013434,0.00018434,0.00018432,0.00018428,0.00019428,0.00018068,0.00017548,0.00017618,0.00017816,0.0001724,0.00016986
668,0.002234,0.002236,0.002232,0.002234,0.002236,0.002056,0.002054,0.002054,0.002064,0.002058,0.002934,0.00294,0.002936,0.00293,0.002932,0.002708,0.002704,0.002706,0.002704,0.002706,0.0001146,0.00011564,0.000114,0.00011484,0.00011474,0.0001072,0.000108,0.0001088,0.0001072,0.00010964,0.00015968,0.00015632,0.00015502,0.00016348,0.00015556,0.00015186,0.00015166,0.00015408,0.0001479,0.00014142
670,0.0019334,0.0019352,0.001929,0.0019276,0.0019336,0.0017842,0.0017818,0.0017782,0.001788,0.0017848,0.002494,0.0025,0.002492,0.002488,0.00249,0.002308,0.002306,0.00231,0.002306,0.002304,0.00010658,0.00010666,0.00010672,0.00010812,0.00010656,9.792e-05,0.00010046,0.0001017,9.998e-05,0.00010124,0.00014464,0.00014618,0.00015014,0.00015236,0.00014322,0.00013782,0.00014068,0.00014352,0.00013678,0.00013412
672,0.001599,0.0016032,0.0015934,0.0015994,0.001599,0.0014838,0.0014792,0.001482,0.0014864,0.0014816,0.002038,0.002044,0.002038,0.002036,0.002034,0.001891,0.0018884,0.001893,0.0018888,0.0018882,0.00010316,0.00010324,0.00010284,0.00010504,0.00010408,9.646e-05,9.634e-05,9.716e-05,9.756e-05,9.806e-05,0.0001411,0.00014104,0.0001422,0.00014766,0.00013708,0.00013034,0.00013296,0.00013764,0.00012658,0.00012686
674,0.001217,0.0012166,0.0012132,0.001216,0.0012148,0.0011344,0.0011312,0.0011308,0.0011344,0.001128,0.0015274,0.0015354,0.0015314,0.0015262,0.0015318,0.0014274,0.0014276,0.0014298,0.0014238,0.0014252,0.00010108,0.00010104,0.00010008,0.00010078,0.00010072,9.264e-05,9.266e-05,9.498e-05,9.512e-05,9.586e-05,0.00013548,0.00013838,0.0001326,0.00013872,0.0001353,0.0001303,0.00012826,0.00013406,0.00012434,0.00012342
676,0.0008636,0.0008686,0.0008614,0.000866,0.0008678,0.0008156,0.0008098,0.0008172,0.0008168,0.0008114,0.0010864,0.001091,0.001088,0.0010818,0.0010866,0.001022,0.0010216,0.001024,0.0010192,0.0010194,9.688e-05,9.678e-05,9.692e-05,9.934e-05,9.808e-05,9.064e-05,9.146e-05,9.164e-05,9.084e-05,9.268e-05,0.00013136,0.00013224,0.00012914,0.00014104,0.0001289,0.00012242,0.00012558,0.00013174,0.00011944,0.000119
678,0.000558,0.0005624,0.000555,0.0005602,0.0005602,0.0005288,0.0005252,0.0005324,0.0005304,0.000526,0.0007038,0.0007096,0.0007042,0.0007004,0.0007018,0.0006646,0.0006686,0.0006712,0.0006646,0.0006668,9.602e-05,9.506e-05,9.324e-05,9.612e-05,9.538e-05,8.762e-05,8.834e-05,9.012e-05,8.782e-05,9.042e-05,0.0001315,0.00013106,0.00012674,0.00013408,0.00012328,0.0001188,0.00012082,0.00012284,0.00011798,0.00011068
680,0.0003238,0.0003224,0.0003214,0.0003222,0.0003214,0.0003068,0.0003042,0.0003076,0.0003088,0.0003048,0.00041,0.0004152,0.0004084,0.0004076,0.0004098,0.0003904,0.0003928,0.000398,0.0003874,0.0003912,9.302e-05,9.426e-05,9.13e-05,9.39e-05,9.178e-05,8.702e-05,8.768e-05,8.892e-05,8.594e-05,8.878e-05,0.0001286,0.0001274,0.00012538,0.0001286,0.00012158,0.0001144,0.00011806,0.0001214,0.00011756,0.00010984
682,0.00018916,0.0001964,0.00019074,0.00019182,0.00019318,0.00018278,0.00017644,0.00018052,0.00018418,0.00017964,0.0002454,0.0002498,0.00025,0.000245,0.0002464,0.0002312,0.0002328,0.0002382,0.000231,0.0002296,9.27e-05,9.18e-05,9.176e-05,9.41e-05,9.162e-05,8.432e-05,8.64e-05,8.626e-05,8.526e-05,8.728e-05,0.0001258,0.00012432,0.00012088,0.00012954,0.00012428,0.0001109,0.00011628,0.00012058,0.0001149,0.00011416
684,0.0001447,0.00014968,0.00014534,0.00014578,0.00014238,0.00013108,0.00013232,0.00013636,0.00014046,0.00013398,0.00018452,0.00019118,0.000188,0.00018652,0.00018118,0.00017098,0.00017322,0.00017748,0.00017108,0.00017176,9.136e-05,8.994e-05,8.99e-05,9.328e-05,9.214e-05,8.766e-05,8.67e-05,8.638e-05,8.466e-05,8.634e-05,0.00012212,0.00012898,0.00011956,0.00012366,0.00012306,0.00010504,0.0001184,0.00012388,0.00011618,0.0001061
686,0.00013744,0.00013472,0.00012974,0.000138,0.00013374,0.0001211,0.00011508,0.00012722,0.00012362,0.00012482,0.00016824,0.00016836,0.00017154,0.00016186,0.00016758,0.00015386,0.0001553,0.0001587,0.00015294,0.0001556,8.986e-05,8.732e-05,8.838e-05,9.176e-05,9.12e-05,8.582e-05,8.582e-05,8.582e-05,8.196e-05,8.54e-05,0.00012256,0.00012536,0.00012332,0.00012406,0.00011918,0.00010904,0.00011874,0.00012406,0.00012106,0.00010904
688,0.000131,0.00012906,0.00012396,0.0001278,0.00012816,0.00011536,0.0001132,0.00011678,0.00011672,0.00011916,0.00015742,0.00016008,0.00015912,0.00015082,0.00015442,0.00014362,0.00014442,0.0001489,0.00014016,0.00014412,8.712e-05,8.436e-05,8.7e-05,9.104e-05,8.892e-05,8.31e-05,8.312e-05,8.226e-05,8.134e-05,8.306e-05,0.00011856,0.0001184,0.0001245,0.00012338,0.00012082,0.00010728,0.0001133,0.00011722,0.00012,0.0001051
690,0.0001255,0.00012646,0.00012352,0.00012392,0.00012274,0.00011336,0.00010554,0.0001123,0.00011156,0.00011062,0.00014904,0.00015052,0.00015032,0.00014048,0.00014544,0.00013344,0.00013806,0.00014252,0.00013418,0.00013628,8.504e-05,8.416e-05,8.312e-05,8.73e-05,8.624e-05,8.006e-05,8.068e-05,7.948e-05,7.864e-05,8.102e-05,0.00011402,0.00012096,0.00012392,0.0001216,0.00011796,0.00010198,0.00011474,0.00011778,0.00011344,0.00010084
692,0.00011656,0.00011946,0.00011674,0.00012108,0.00012112,0.00010846,9.906e-05,0.00010952,0.00010726,0.00010478,0.00013768,0.00013746,0.0001423,0.00013028,0.0001415,0.00013138,0.00012776,0.00013208,0.00012664,0.0001298,8.08e-05,8.016e-05,7.948e-05,8.262e-05,8.162e-05,7.808e-05,7.81e-05,7.858e-05,7.344e-05,7.964e-05,0.00011624,0.0001231,0.00011702,0.00011694,0.00011594,9.282e-05,0.00011036,0.00011224,0.0001147,0.00010298
694,0.00011304,0.00011046,0.00011066,0.00011638,0.00010998,9.766e-05,9.436e-05,0.00010296,9.764e-05,0.00010136,0.0001311,0.0001291,0.00013346,0.00012684,0.00013136,0.00012018,0.00012182,0.00012252,0.00011858,0.00012396,7.746e-05,7.602e-05,7.612e-05,8.194e-05,7.912e-05,7.384e-05,7.53e-05,7.436e-05,7.234e-05,7.444e-05,0.00012024,0.00012348,0.00011636,0.0001145,0.00011386,8.988e-05,0.00010726,0.00010612,0.00011468,0.00010344
696,0.0001123,0.00010556,0.00011072,0.00011028,0.00010356,9.544e-05,8.844e-05,9.998e-05,9.372e-05,9.596e-05,0.00012132,0.00011976,0.00012594,0.00012098,0.0001216,0.00011312,0.00011628,0.0001169,0.0001137,0.00011772,7.558e-05,7.206e-05,7.298e-05,7.778e-05,7.74e-05,7.18e-05,7.27e-05,7.09e-05,6.99e-05,7.078e-05,0.00011856,0.00012114,0.00011436,0.0001106,0.00010848,9.022e-05,0.00010418,0.00010214,0.00010904,0.00010018
698,0.00010434,9.758e-05,0.0001063,0.00010462,0.0001012,9.292e-05,8.588e-05,9.446e-05,8.688e-05,9.282e-05,0.00011236,0.00011216,0.00012062,0.00011318,0.00011574,0.00010892,0.00011006,0.00011008,0.00010612,0.00011004,7.032e-05,6.828e-05,6.822e-05,7.434e-05,7.21e-05,7.016e-05,7.026e-05,6.71e-05,6.8e-05,6.904e-05,0.00011882,0.00011508,0.00010832,0.0001094,0.00011236,9.134e-05,0.00010152,0.00010286,0.00011234,9.606e-05
700,9.952e-05,9.638e-05,9.942e-05,0.00010234,0.00010076,8.966e-05,8.352e-05,8.924e-05,8.236e-05,9.02e-05,0.00010898,0.00010456,0.00011316,0.00010892,0.00010338,0.00010206,0.0001059,0.00010298,9.996e-05,0.00010244,6.672e-05,6.532e-05,6.744e-05,7.114e-05,6.8e-05,6.7e-05,6.966e-05,6.504e-05,6.44e-05,6.466e-05,0.0001133,0.00011028,0.00010782,0.00010712,0.00011172,9.386e-05,9.712e-05,9.444e-05,0.00010444,9.454e-05
702,0.0001012,9.16e-05,0.0001014,9.936e-05,9.318e-05,8.804e-05,7.576e-05,8.804e-05,7.772e-05,8.572e-05,0.00010146,9.832e-05,0.00010698,0.0001009,9.544e-05,0.00010012,9.642e-05,9.68e-05,9.906e-05,0.00010236,6.382e-05,6.36e-05,6.474e-05,6.826e-05,6.61e-05,6.288e-05,6.278e-05,6.086e-05,5.992e-05,6.076e-05,0.00010472,0.00010586,0.00010208,0.0001014,0.00010648,8.44e-05,9.854e-05,9.746e-05,0.0001015,8.798e-05
704,9.422e-05,8.242e-05,9.874e-05,9.292e-05,9.094e-05,8.276e-05,7.634e-05,8.004e-05,7.282e-05,8.392e-05,9.092e-05,9.24e-05,0.00010042,9.408e-05,9.188e-05,9.532e-05,9.01e-05,9.156e-05,9.04e-05,9.95e-05,5.842e-05,6.024e-05,6.04e-05,6.486e-05,6.27e-05,5.872e-05,6.008e-05,5.892e-05,5.682e-05,5.556e-05,0.000104,0.0001047,0.00010208,9.7e-05,9.968e-05,8.582e-05,8.614e-05,9.646e-05,0.00010832,9.64e-05
706,9.028e-05,8.03e-05,9.322e-05,8.94e-05,8.416e-05,7.584e-05,7.63e-05,7.46e-05,7.172e-05,7.956e-05,8.958e-05,9.07e-05,9.352e-05,9.49e-05,9.182e-05,9.002e-05,8.7e-05,8.58e-05,8.97e-05,9.12e-05,5.594e-05,5.552e-05,5.71e-05,6.184e-05,5.942e-05,5.616e-05,5.756e-05,5.688e-05,5.456e-05,5.204e-05,0.00010318,9.676e-05,0.00010054,9.814e-05,9.454e-05,8.276e-05,8.504e-05,8.706e-05,0.00010644,9.024e-05
708,8.574e-05,7.334e-05,8.898e-05,8.764e-05,8.258e-05,7.256e-05,6.806e-05,7.382e-05,6.984e-05,7.506e-05,8.35e-05,8.494e-05,9e-05,9.654e-05,8.862e-05,8.516e-05,8.366e-05,8.142e-05,8.582e-05,8.742e-05,5.322e-05,5.326e-05,5.432e-05,5.678e-05,5.462e-05,5.36e-05,5.626e-05,5.3e-05,5.054e-05,4.684e-05,0.00010108,9.48e-05,9.216e-05,9.066e-05,9.08e-05,7.818e-05,8.36e-05,8.616e-05,9.24e-05,8.436e-05
710,7.984e-05,7.276e-05,7.844e-05,7.816e-05,7.552e-05,7.106e-05,6.704e-05,7.544e-05,6.048e-05,7.492e-05,7.758e-05,8.174e-05,9.124e-05,9.356e-05,8.658e-05,8.55e-05,7.99e-05,7.454e-05,8.038e-05,9.032e-05,5.196e-05,5.078e-05,4.796e-05,5.65e-05,5.014e-05,5.014e-05,5.25e-05,5.054e-05,4.652e-05,4.524e-05,9.124e-05,9.218e-05,9.022e-05,8.11e-05,9.318e-05,8.384e-05,7.702e-05,8.264e-05,9.382e-05,7.712e-05
712,7.9e-05,7.18e-05,7.866e-05,7.444e-05,7.212e-05,6.918e-05,6.702e-05,7.006e-05,6.18e-05,6.948e-05,7.62e-05,7.774e-05,8.634e-05,8.458e-05,8.376e-05,8.64e-05,7.928e-05,7.31e-05,7.688e-05,8.686e-05,4.94e-05,4.77e-05,4.792e-05,5.006e-05,4.78e-05,4.68e-05,4.93e-05,4.658e-05,4.418e-05,4.354e-05,8.634e-05,8.378e-05,8.806e-05,7.468e-05,8.684e-05,7.524e-05,7.124e-05,9.03e-05,8.664e-05,7.898e-05
714,7.168e-05,6.456e-05,7.174e-05,6.956e-05,6.876e-05,6.652e-05,6.624e-05,6.634e-05,5.704e-05,7.054e-05,7.416e-05,7.754e-05,8.296e-05,8.668e-05,7.858e-05,8.804e-05,8.11e-05,7.462e-05,7.602e-05,8.696e-05,4.598e-05,4.854e-05,4.64e-05,4.802e-05,4.548e-05,4.658e-05,4.756e-05,4.504e-05,4.29e-05,3.884e-05,7.756e-05,8.292e-05,8.316e-05,7.062e-05,9.03e-05,7.15e-05,7.652e-05,7.676e-05,8.482e-05,8.596e-05
716,7.026e-05,6.784e-05,7.056e-05,6.314e-05,6.774e-05,5.822e-05,6.072e-05,6.682e-05,5.54e-05,6.836e-05,7.054e-05,7.42e-05,7.958e-05,8.42e-05,7.664e-05,8.374e-05,7.59e-05,7.032e-05,7.672e-05,8.406e-05,4.566e-05,4.502e-05,4.272e-05,4.432e-05,4.234e-05,4.24e-05,4.372e-05,4.262e-05,4.166e-05,3.624e-05,8.43e-05,8.1e-05,8.162e-05,6.8e-05,8.536e-05,7.536e-05,6.676e-05,7.736e-05,8.388e-05,7.984e-05
718,6.346e-05,5.548e-05,6.964e-05,5.974e-05,6.176e-05,5.298e-05,5.524e-05,6.51e-05,5.744e-05,6.278e-05,7.116e-05,7.174e-05,7.398e-05,8.308e-05,7.448e-05,7.412e-05,7.154e-05,6.88e-05,7.022e-05,7.8e-05,4.166e-05,4.162e-05,4.178e-05,4.114e-05,3.986e-05,4.052e-05,4.064e-05,4.03e-05,3.96e-05,3.524e-05,8.21e-05,7.942e-05,7.174e-05,6.994e-05,7.946e-05,7.446e-05,6.99e-05,7.226e-05,7.478e-05,7.708e-05
720,6.542e-05,5.204e-05,6.622e-05,5.304e-05,5.212e-05,5.556e-05,5.68e-05,4.972e-05,4.868e-05,5.924e-05,6.418e-05,6.596e-05,7.608e-05,7.678e-05,7.342e-05,7.312e-05,6.904e-05,6.532e-05,6.962e-05,7.508e-05,4.076e-05,4.276e-05,3.996e-05,3.914e-05,3.786e-05,3.756e-05,4.074e-05,3.772e-05,3.644e-05,3.414e-05,7.168e-05,7.686e-05,6.994e-05,6.956e-05,7.434e-05,7.18e-05,5.968e-05,6.592e-05,6.644e-05,7.58e-05
722,5.37e-05,4.29e-05,5.79e-05,4.974e-05,5.648e-05,5.388e-05,4.818e-05,4.76e-05,4.162e-05,5.362e-05,6.366e-05,6.482e-05,7.172e-05,6.868e-05,7.226e-05,7.006e-05,6.742e-05,5.846e-05,6.08e-05,7.294e-05,3.93e-05,3.962e-05,3.854e-05,3.53e-05,3.694e-05,3.414e-05,3.858e-05,3.562e-05,3.728e-05,3.288e-05,6.388e-05,7.42e-05,6.47e-05,5.666e-05,7.27e-05,7.824e-05,6.008e-05,6.92e-05,6.29e-05,7.108e-05
724,4.28e-05,3.7e-05,4.916e-05,4.634e-05,5.076e-05,4.602e-05,4.634e-05,4.778e-05,3.852e-05,5.148e-05,6.456e-05,6.124e-05,6.856e-05,6.856e-05,6.646e-05,6.876e-05,6.446e-05,5.064e-05,5.82e-05,6.73e-05,3.9e-05,3.866e-05,3.664e-05,3.534e-05,3.564e-05,3.282e-05,3.734e-05,3.534e-05,3.666e-05,3.442e-05,5.41e-05,6.608e-05,6.418e-05,6.162e-05,7.26e-05,7.326e-05,5.516e-05,5.782e-05,6.47e-05,6.762e-05
726,4.15e-05,3.792e-05,4.104e-05,3.604e-05,4.566e-05,5.442e-05,5.036e-05,4.434e-05,3.71e-05,4.372e-05,5.856e-05,5.706e-05,6.414e-05,7.046e-05,5.912e-05,6.548e-05,6.248e-05,5.27e-05,5.496e-05,6.188e-05,4.196e-05,3.914e-05,3.932e-05,3.56e-05,3.35e-05,3.438e-05,3.432e-05,3.398e-05,3.682e-05,3.274e-05,5.686e-05,6.406e-05,5.968e-05,6.27e-05,7.518e-05,6.95e-05,5.524e-05,6.372e-05,6.226e-05,7.138e-05
728,4.36e-05,2.736e-05,3.444e-05,3.732e-05,5.104e-05,3.632e-05,4.936e-05,4.97e-05,3.574e-05,4.062e-05,6.684e-05,6.144e-05,5.956e-05,5.992e-05,5.936e-05,6.484e-05,5.42e-05,4.882e-05,5.218e-05,6.9e-05,4.174e-05,4.034e-05,3.78e-05,3.438e-05,3.242e-05,3.688e-05,3.514e-05,3.522e-05,3.58e-05,3.51e-05,5.178e-05,5.914e-05,6.008e-05,4.832e-05,6.508e-05,8.158e-05,5.922e-05,6.668e-05,5.542e-05,6.054e-05
730,4.046e-05,3.402e-05,3.498e-05,3.292e-05,4.252e-05,3.788e-05,4.42e-05,3.79e-05,3.156e-05,3.72e-05,6.302e-05,5.742e-05,5.942e-05,5.448e-05,5.922e-05,5.98e-05,5.588e-05,4.596e-05,6.338e-05,6.298e-05,3.83e-05,3.998e-05,3.962e-05,3.468e-05,3.298e-05,3.302e-05,3.218e-05,3.414e-05,3.772e-05,3.64e-05,4.666e-05,5.626e-05,5.8e-05,5.732e-05,6.454e-05,7.846e-05,5.722e-05,6.236e-05,5.208e-05,6.884e-05
732,3.702e-05,3.28e-05,2.814e-05,3.082e-05,3.2e-05,3.312e-05,3.818e-05,3.614e-05,3.108e-05,3.544e-05,6.322e-05,5.68e-05,5.334e-05,6.18e-05,5.928e-05,5.422e-05,5.596e-05,4.516e-05,5.852e-05,5.926e-05,3.982e-05,3.896e-05,3.936e-05,3.374e-05,3.432e-05,3.13e-05,3.196e-05,2.992e-05,3.816e-05,3.684e-05,4.08e-05,5.492e-05,5.044e-05,6.128e-05,6.56e-05,8.394e-05,5.608e-05,5.646e-05,4.686e-05,7.108e-05
734,2.888e-05,2.924e-05,2.846e-05,2.472e-05,3.544e-05,3.17e-05,4.344e-05,2.922e-05,3.372e-05,3.344e-05,6.96e-05,5.504e-05,5.092e-05,5.468e-05,5.802e-05,5.216e-05,5.438e-05,4.114e-05,4.868e-05,6.366e-05,4.044e-05,3.686e-05,4.072e-05,3.358e-05,3.266e-05,3.164e-05,2.926e-05,3.026e-05,3.606e-05,3.564e-05,3.416e-05,4.962e-05,3.392e-05,5.838e-05,5.694e-05,7.89e-05,5.876e-05,6.78e-05,4.098e-05,6.808e-05
736,2.056e-05,1.4602e-05,1.527e-05,2.162e-05,3.582e-05,2.6e-05,3.844e-05,2.678e-05,3.284e-05,2.606e-05,5.94e-05,5.568e-05,5.558e-05,5.44e-05,5.558e-05,5.154e-05,4.958e-05,4.264e-05,4.464e-05,4.566e-05,3.55e-05,3.394e-05,3.68e-05,3.174e-05,2.828e-05,2.636e-05,2.758e-05,2.756e-05,3.498e-05,3.44e-05,2.838e-05,4.39e-05,3.514e-05,5.19e-05,4.414e-05,7.5e-05,4.184e-05,6.33e-05,3.116e-05,5.854e-05
738,9.568e-06,1.2358e-05,1.8416e-05,8.51e-06,3.096e-05,2.244e-05,3.994e-05,2.258e-05,2.736e-05,1.7938e-05,5.558e-05,5.254e-05,5.008e-05,5.558e-05,5.098e-05,4.724e-05,5.24e-05,4.54e-05,4.874e-05,4.624e-05,3.576e-05,3.208e-05,3.448e-05,2.476e-05,2.37e-05,2.618e-05,2.354e-05,2.644e-05,3.416e-05,3.544e-05,2.062e-05,3.762e-05,3.794e-05,5.244e-05,5.244e-05,6.842e-05,4.176e-05,5.394e-05,1.73e-05,3.95e-05
740,1.2222e-05,7.444e-06,9.122e-06,9.132e-06,3.372e-05,2.37e-05,3.292e-05,2.148e-05,2.622e-05,1.896e-05,5.282e-05,5.826e-05,5.044e-05,4.826e-05,5e-05,3.944e-05,4.656e-05,4.342e-05,4.91e-05,4.178e-05,3.126e-05,2.93e-05,3.108e-05,2.14e-05,2.18e-05,2.272e-05,2.098e-05,2.724e-05,2.868e-05,3.374e-05,5.95e-06,4.408e-05,2.604e-05,4.798e-05,3.682e-05,6.362e-05,3.626e-05,5.336e-05,1.2894e-05,4.428e-05
742,1.4776e-05,1.1908e-05,1.0644e-05,2.106e-06,2.262e-05,2.366e-05,3.45e-05,1.8192e-05,1.637e-05,3.552e-06,6.296e-05,6.166e-05,4.66e-05,3.878e-05,4.804e-05,2.974e-05,4.496e-05,4.104e-05,4.41e-05,3.664e-05,2.964e-05,2.538e-05,3.016e-05,2.244e-05,2.268e-05,2.158e-05,2.068e-05,2.532e-05,2.974e-05,3.156e-05,7.378e-06,4.358e-05,2.436e-05,4.884e-05,3.386e-05,6.264e-05,3.288e-05,5.436e-05,7.96e-06,3.308e-05
744,1.4152e-05,1.3494e-05,2.416e-06,0,1.216e-05,1.197e-05,2.812e-05,1.909e-05,2.488e-05,7.598e-06,6.386e-05,5.564e-05,4.356e-05,4.456e-05,5.52e-05,3.12e-05,5.32e-05,4.33e-05,4.568e-05,3.84e-05,2.97e-05,2.638e-05,2.82e-05,1.9128e-05,1.776e-05,1.8834e-05,1.9548e-05,1.921e-05,2.374e-05,3.262e-05,1.6996e-06,4.856e-05,1.9852e-05,5.368e-05,3.368e-05,5.892e-05,2.406e-05,5.578e-05,3.27e-06,3.458e-05
746,6.966e-06,1.011e-05,0,4.368e-06,2.264e-05,1.0404e-05,2.49e-05,1.2036e-05,2.122e-05,1.0238e-06,6.47e-05,6.278e-05,4.898e-05,4.446e-05,5.748e-05,3.434e-05,4.882e-05,4.656e-05,4.34e-05,3.67e-05,2.854e-05,2.124e-05,2.288e-05,1.4878e-05,2.008e-05,1.8856e-05,2.11e-05,2.28e-05,2.254e-05,2.772e-05,7.776e-06,3.4e-05,1.9752e-05,4.394e-05,2.22e-05,5.86e-05,2.606e-05,5e-05,1.2032e-05,2.984e-05
748,8.168e-06,6.402e-06,0,7.16e-06,2.356e-05,4.194e-06,2.8e-05,1.1916e-05,1.6066e-05,1.6778e-06,6.654e-05,6.438e-05,4.406e-05,4.834e-05,5.102e-05,3.802e-05,4.854e-05,4.784e-05,4e-05,3.678e-05,2.71e-05,2.006e-05,2.24e-05,1.8598e-05,2.066e-05,1.8164e-05,1.815e-05,2.252e-05,2.454e-05,2.916e-05,2.37e-06,2.636e-05,2.15e-05,4.564e-05,2.396e-05,5.856e-05,3.046e-05,6.064e-05,1.1132e-05,9.994e-06
750,9.44e-06,1.3968e-05,2.64e-06,0,1.7942e-05,7.426e-06,2.778e-05,1.6632e-05,1.6806e-05,0,6.414e-05,6.298e-05,4.984e-05,5.54e-05,5.116e-05,3.156e-05,4.904e-05,5.218e-05,4.48e-05,3.566e-05,2.47e-05,1.8678e-05,2.23e-05,1.745e-05,2.292e-05,1.6174e-05,1.5392e-05,2.338e-05,2.374e-05,2.646e-05,0,2.674e-05,1.6742e-05,4.024e-05,2.074e-05,4.992e-05,2.672e-05,6.114e-05,3.98e-06,1.4742e-05
752,2.166e-05,1.5602e-05,4.238e-07,7.038e-06,1.804e-05,1.6684e-06,1.6374e-05,2.066e-05,1.6174e-05,0,6.85e-05,6.186e-05,4.082e-05,3.896e-05,5.616e-05,3.476e-05,4.738e-05,4.9e-05,4.476e-05,2.84e-05,2.456e-05,1.6354e-05,2.166e-05,1.5182e-05,1.8638e-05,1.9124e-05,2.052e-05,2.498e-05,2.66e-05,2.86e-05,1.3078e-05,2.284e-05,3.144e-05,4.662e-05,1.125e-05,5.742e-05,1.0888e-05,4.984e-05,8.546e-06,2.138e-05
754,2.032e-05,1.965e-05,2.888e-06,6.524e-06,2.246e-05,4.18e-06,1.6564e-05,1.4548e-05,2.84e-05,5.416e-07,7.836e-05,6.77e-05,3.756e-05,4.296e-05,5.452e-05,4.488e-05,5.054e-05,5.974e-05,5.874e-05,2.426e-05,2.63e-05,1.6632e-05,2.42e-05,1.8136e-05,1.9856e-05,1.9274e-05,1.9352e-05,2.538e-05,2.78e-05,2.906e-05,1.1582e-05,3.476e-05,2.294e-06,3.662e-05,2.744e-05,3.74e-05,1.2702e-05,7.048e-05,1.9162e-05,1.3218e-05
756,2.486e-05,2.734e-05,7.716e-06,2.156e-06,2.032e-05,3.832e-06,1.7338e-05,2.542e-05,3.074e-05,1.063e-06,8.22e-05,5.836e-05,4.952e-05,5.09e-05,4.968e-05,4.122e-05,4.656e-05,5.798e-05,5.904e-05,3.58e-05,2.33e-05,1.433e-05,2.374e-05,1.6948e-05,2.408e-05,1.977e-05,1.7924e-05,2.566e-05,2.79e-05,2.444e-05,2.042e-05,3.56e-05,1.8036e-05,3.634e-05,2.646e-05,3.45e-05,2.422e-05,6.94e-05,1.0286e-05,1.1832e-05
758,2.478e-05,3.232e-05,1.4936e-06,1.2796e-05,2.328e-05,1.4096e-05,6.312e-06,1.6172e-05,2.324e-05,5.648e-06,7.65e-05,6.264e-05,4.576e-05,4.114e-05,6.438e-05,4.02e-05,4.84e-05,6.196e-05,6.03e-05,3.804e-05,2.568e-05,9.758e-06,2.566e-05,1.6376e-05,1.9036e-05,2.56e-05,1.8178e-05,3.11e-05,2.822e-05,2.44e-05,9.936e-06,4.874e-05,2.184e-05,4.18e-05,3.776e-05,3.072e-05,1.115e-05,5.874e-05,1.3962e-05,5.56e-06
760,2.49e-05,3.212e-05,2.746e-07,2.08e-05,2.414e-05,2.68e-06,1.4558e-05,2.728e-05,2.93e-05,1.4682e-06,7.722e-05,6.588e-05,4.462e-05,3.87e-05,6.542e-05,3.4e-05,6.346e-05,5.744e-05,6.216e-05,3.9e-05,2.23e-05,6.87e-06,2.042e-05,1.5196e-05,1.8592e-05,2.436e-05,1.9032e-05,2.566e-05,2.942e-05,2.466e-05,3.508e-05,4.546e-05,2.076e-05,3.264e-05,5.728e-05,2.62e-05,1.3302e-05,6.888e-05,2.758e-05,1.668e-05
762,4.102e-05,3.42e-05,7.496e-06,2.116e-05,2.522e-06,4.072e-06,0,1.4646e-05,1.6288e-05,7.028e-06,7.392e-05,7.01e-05,4.612e-05,5.044e-05,5.186e-05,4.636e-05,6.072e-05,7.424e-05,5.442e-05,3.234e-05,1.801e-05,8.936e-06,1.2938e-05,1.923e-05,1.882e-05,2.198e-05,2.218e-05,2.91e-05,1.8798e-05,2.198e-05,2.726e-05,4.526e-05,5.848e-05,5.524e-05,3.71e-05,2.468e-05,5.32e-05,6.102e-05,4.478e-05,6.998e-06
764,3.788e-05,3.618e-05,1.7956e-05,2.486e-05,1.6258e-05,3.536e-06,0,3.062e-05,8.664e-06,8.064e-06,7.076e-05,7.908e-05,5.156e-05,5.308e-05,5.788e-05,4.766e-05,5.396e-05,7.234e-05,5.104e-05,2.598e-05,1.834e-05,1.618e-05,1.4816e-05,1.9358e-05,1.9186e-05,2.672e-05,2.172e-05,2.884e-05,2.328e-05,2.264e-05,7.026e-05,5.098e-05,6.428e-05,6.032e-05,3.93e-05,2.874e-05,5.28e-05,7.058e-05,5.022e-05,1.0674e-05
766,4.524e-05,3.918e-05,2.36e-05,3.688e-05,1.7518e-05,1.1716e-05,0,2.244e-05,2.088e-05,6.6e-06,6.816e-05,8.23e-05,5.872e-05,4.228e-05,5.444e-05,4.598e-05,4.694e-05,7.606e-05,5.388e-05,3.16e-05,1.604e-05,1.1972e-05,1.9276e-05,1.8588e-05,1.3492e-05,2.368e-05,2.366e-05,3.16e-05,2.966e-05,2.086e-05,9.52e-05,5.208e-05,6.84e-05,4.334e-05,4.626e-05,2.512e-05,6.532e-05,7.186e-05,4.86e-05,4.368e-06
768,6.066e-05,6.126e-05,4.42e-05,3.684e-05,4.576e-06,2.68e-05,8.632e-06,2.166e-05,2.768e-05,2.696e-05,5.412e-05,8.228e-05,5.696e-05,5.53e-05,4.538e-05,4.848e-05,4.91e-05,7.746e-05,5.812e-05,2.952e-05,1.0532e-05,1.1564e-05,9.592e-06,1.6446e-05,1.5716e-05,2.81e-05,2.378e-05,2.684e-05,2.756e-05,2.492e-05,8.336e-05,4.654e-05,6.352e-05,3.68e-05,5.082e-05,1.807e-05,6.092e-05,6.148e-05,7.354e-05,2.79e-05
770,5.206e-05,5.154e-05,2.932e-05,5.084e-05,7.082e-06,1.4824e-05,0,3.632e-05,3.964e-05,4.116e-05,5.872e-05,8.044e-05,5.544e-05,5.998e-05,4.898e-05,6.032e-05,4.632e-05,6.66e-05,6.544e-05,2.674e-05,1.2902e-05,2.216e-05,1.238e-05,1.2318e-05,1.3932e-05,3.294e-05,1.7362e-05,3.078e-05,2.552e-05,2.418e-05,0.0001068,5.342e-05,7.598e-05,5.248e-05,4.586e-05,1.0366e-05,3.438e-05,7.872e-05,7.96e-05,2.736e-05
772,6.534e-05,5.128e-05,4.082e-05,4.262e-05,2.352e-05,1.9132e-05,2.568e-06,2.292e-05,3.522e-05,3.61e-05,5.73e-05,5.318e-05,5.952e-05,5.05e-05,4.934e-05,4.984e-05,3.648e-05,8.14e-05,7.182e-05,2.588e-05,8.12e-06,6.478e-06,9.598e-06,1.2694e-05,1.9922e-05,2.572e-05,2.698e-05,3.06e-05,2.264e-05,1.8764e-05,0.00011456,5.174e-05,0.00010338,3.846e-05,5.46e-05,1.467e-05,6.478e-05,8.098e-05,8.492e-05,1.459e-05
774,7.17e-05,6.34e-05,4.672e-05,4.462e-05,9.15e-06,2.976e-05,1.4124e-05,2.86e-05,3.406e-05,3.834e-05,5.256e-05,6.448e-05,5.402e-05,6.08e-05,4.572e-05,5.132e-05,4.918e-05,8.596e-05,6.244e-05,3.236e-05,9.772e-06,8.44e-06,7.164e-06,1.5884e-05,1.8704e-05,3.054e-05,2.79e-05,3.31e-05,2.688e-05,1.9128e-05,0.0001132,9.34e-05,0.00012468,6.412e-05,7.686e-05,9.22e-06,5.31e-05,5.676e-05,7.914e-05,2.91e-05
776,7.014e-05,6.38e-05,6.614e-05,6.688e-05,1.876e-05,3.614e-05,4.314e-06,2.594e-05,3.662e-05,5.636e-05,5.088e-05,7.318e-05,5.744e-05,4.538e-05,3.92e-05,6.452e-05,3.2e-05,7.538e-05,5.896e-05,3.246e-05,4.546e-06,1.872e-05,1.207e-05,1.1666e-05,2.1e-05,3.124e-05,2.214e-05,3.664e-05,2.404e-05,1.4644e-05,0.00011774,7.274e-05,0.00011288,8.224e-05,9.714e-05,0,6.72e-05,4.398e-05,8.274e-05,2.584e-05
778,6.516e-05,5.728e-05,5.022e-05,0.00010002,2.614e-05,3.464e-05,3.54e-05,4.746e-05,3.036e-05,5.992e-05,3.268e-05,5.288e-05,4.326e-05,3.044e-05,2.628e-05,7.238e-05,3.274e-05,7.298e-05,5.886e-05,3.544e-05,1.6226e-06,9.05e-06,1.2832e-05,1.9856e-05,2.404e-05,2.71e-05,3.04e-05,2.168e-05,1.7844e-05,1.8376e-05,0.0001423,8.132e-05,9.506e-05,8.57e-05,0.00010658,0,7.57e-05,5.51e-05,0.0001133,3.348e-05
780,7.82e-05,5.954e-05,5.912e-05,7.488e-05,3.09e-05,4.336e-05,1.4974e-05,3.19e-05,4.376e-05,8.692e-05,3.38e-05,6.102e-05,5.334e-05,4.74e-05,2.21e-05,7.296e-05,5.164e-05,9.096e-05,5.148e-05,3.452e-05,5.536e-06,1.0462e-05,1.674e-05,2.316e-05,2.382e-05,3.236e-05,2.642e-05,1.876e-05,1.9356e-05,2.59e-05,0.00015268,8.952e-05,0.00011534,8.266e-05,9.996e-05,6.176e-06,9.034e-05,3.088e-05,0.00011068,3.706e-05
