Wavelength [nm],Background (Mel),Modulation (Mel),Background (LMS),Modulation (LMS)380,3.888e-06,7.946e-06,5.718e-06,6.984e-06,1.2276e-05,6.08e-06,4.122e-06,9.162e-06,8.398e-06,8.772e-06,1.0744e-05,1.9952e-05,1.7906e-05,1.2296e-05,1.2614e-05,1.2418e-05,9.3e-06,1.8842e-05,1.1464e-05,3.368e-06,4.934e-06,2.188e-06,3.704e-06,5.946e-06,4.788e-06,3.044e-06,3.96e-06,4.318e-06,6.046e-06,6.306e-06,2.28e-05,1.4118e-05,2.576e-05,2.114e-05,1.7142e-05,2.246e-05,3.384e-05,5.508e-06,1.094e-05,1.8748e-05
382,0,5.61e-06,1.4038e-05,3.656e-06,1.3892e-05,5.342e-06,4.638e-06,1.0644e-05,9.722e-06,4.904e-06,9.98e-06,1.7532e-05,1.7554e-05,1.0946e-05,1.3826e-05,9.872e-06,7.86e-06,1.653e-05,1.4846e-05,2.072e-06,6.346e-06,2.018e-06,6.978e-06,5.386e-06,3.914e-06,3.846e-06,3.372e-06,4.532e-06,7.96e-06,3.738e-06,2.232e-05,1.7086e-05,3.112e-05,1.7198e-05,1.465e-05,2.594e-05,2.696e-05,6.376e-06,1.119e-05,1.373e-05
384,8.52e-07,4.228e-06,7.052e-06,8.734e-06,1.1732e-05,8.392e-06,6.828e-06,8.064e-06,1.2928e-05,6.302e-06,9.16e-06,1.7408e-05,1.7594e-05,6.874e-06,1.2944e-05,1.209e-05,8.952e-06,1.5838e-05,1.0164e-05,6.664e-06,6.448e-06,9.506e-07,4.726e-06,4.95e-06,4.538e-06,4.446e-06,3.116e-06,5.252e-06,5.496e-06,4.672e-06,1.6842e-05,1.4394e-05,2.822e-05,1.6908e-05,1.2922e-05,2.856e-05,2.708e-05,7.4e-06,1.1836e-05,7.11e-06
386,4.186e-06,8.18e-06,9.99e-06,4.408e-06,9.562e-06,1.2012e-05,1.7308e-06,7.466e-06,1.1752e-05,6.43e-06,9.368e-06,1.69e-05,1.6472e-05,8.098e-06,1.146e-05,1.1286e-05,1.2746e-05,1.623e-05,9.81e-06,6.534e-06,6.414e-06,9.89e-07,5.72e-06,5.52e-06,4.906e-06,3.512e-06,3.056e-06,5.15e-06,5.486e-06,5.746e-06,2.114e-05,1.3234e-05,2.494e-05,1.83e-05,1.6506e-05,2.866e-05,2.606e-05,1.029e-05,1.411e-05,1.1706e-05
388,4.06e-06,5.9e-06,1.1092e-05,5.518e-06,8.516e-06,1.2768e-05,2.83e-06,1.0018e-05,1.506e-05,4.38e-06,7.336e-06,1.6136e-05,1.6346e-05,7.08e-06,1.2168e-05,1.3116e-05,1.1374e-05,1.4006e-05,9.5e-06,8.232e-06,6.764e-06,1.657e-06,4.748e-06,4.398e-06,4.756e-06,4.34e-06,2.298e-06,4.004e-06,3.1e-06,4.364e-06,1.3434e-05,1.2446e-05,2.146e-05,1.395e-05,9.742e-06,2.634e-05,2.196e-05,1.363e-05,1.1982e-05,1.3412e-05
390,3.942e-06,9.052e-06,1.4162e-05,8.864e-06,8.902e-06,1.1718e-05,1.3622e-06,8.812e-06,1.7008e-05,6.364e-06,8.806e-06,1.7532e-05,1.3282e-05,7.046e-06,1.4288e-05,1.497e-05,7.258e-06,1.2846e-05,9.57e-06,7.71e-06,7.008e-06,2.612e-06,4.572e-06,4.922e-06,4.21e-06,4.078e-06,1.9936e-06,4.568e-06,2.62e-06,4.99e-06,1.3002e-05,1.6166e-05,1.7048e-05,1.4858e-05,2.624e-06,2.488e-05,2.114e-05,1.2246e-05,1.0572e-05,1.1104e-05
392,4.942e-06,1.0284e-05,1.1268e-05,2.566e-06,7.178e-06,9.52e-06,0,1.0628e-05,1.803e-05,5.866e-06,8.32e-06,2.094e-05,1.4214e-05,4.054e-06,1.1278e-05,1.6704e-05,8.634e-06,1.071e-05,1.011e-05,5.012e-06,6.498e-06,2.442e-06,2.62e-06,5.076e-06,5.578e-06,4.708e-06,1.407e-06,5.634e-06,3.43e-06,5.56e-06,1.5456e-05,1.6192e-05,1.5394e-05,1.7712e-05,5.054e-06,1.8572e-05,2.53e-05,1.254e-05,1.1014e-05,9.434e-06
394,8.062e-07,7.926e-06,1.318e-05,2.87e-06,7.96e-06,9.886e-06,0,6.788e-06,1.8802e-05,6.474e-06,8.698e-06,2.204e-05,1.3872e-05,7.428e-06,1.217e-05,1.3888e-05,7.744e-06,1.1192e-05,1.1506e-05,6.958e-06,6.216e-06,1.7036e-06,2.368e-06,4.148e-06,4.334e-06,5.308e-06,1.7876e-06,3.776e-06,4.36e-06,3.756e-06,8.382e-06,1.6334e-05,1.6082e-05,1.997e-05,9.71e-06,2.358e-05,2.494e-05,1.3502e-05,7.762e-06,8.208e-06
396,3.238e-06,9.85e-06,1.8658e-05,6.43e-06,1.041e-05,8.462e-06,3.99e-06,2.644e-06,1.726e-05,4.816e-06,6.764e-06,1.5956e-05,1.009e-05,6.276e-06,1.2298e-05,1.1522e-05,7.224e-06,1.078e-05,1.087e-05,1.0002e-05,5.83e-06,2.874e-06,1.5938e-06,4.074e-06,2.568e-06,5.692e-06,5.448e-07,4.204e-06,2.49e-06,3.654e-06,8.668e-06,9.164e-06,1.8948e-05,1.8648e-05,6.64e-06,2.604e-05,1.7954e-05,1.414e-05,1.014e-05,1.0694e-05
398,4.73e-06,9.464e-06,1.4474e-05,5.046e-06,7.454e-06,7.324e-06,0,2.02e-06,1.219e-05,5.188e-06,6.068e-06,1.839e-05,1.1466e-05,6.606e-06,1.121e-05,1.1306e-05,7.472e-06,6.19e-06,7.76e-06,9.346e-06,5.604e-06,2.084e-06,2.468e-06,3.882e-06,4.226e-06,4.266e-06,1.4106e-06,2.872e-06,3.748e-06,2.476e-06,1.3244e-05,1.1454e-05,1.2784e-05,1.5824e-05,5.974e-06,2.48e-05,1.492e-05,1.4468e-05,8.66e-06,1.66e-05
400,5.932e-06,1.0806e-05,1.22e-05,5.05e-06,7.296e-06,6.508e-06,6.812e-07,2.74e-06,1.4592e-05,1.7516e-06,5.218e-06,1.7684e-05,7.11e-06,5.194e-06,9.59e-06,1.025e-05,8.322e-06,7.25e-06,8.496e-06,6.71e-06,5.336e-06,2.826e-06,3.282e-06,3.998e-06,4.514e-06,3.984e-06,2.482e-06,4.092e-06,3.694e-06,2.924e-06,1.1552e-05,7.734e-06,9.946e-06,1.6146e-05,8.842e-06,1.9682e-05,1.3962e-05,1.3924e-05,9.438e-06,1.5308e-05
402,6.082e-06,1.05e-05,1.284e-05,7.282e-06,2.636e-06,6.514e-06,1.8334e-06,2.462e-06,1.3648e-05,7.088e-07,7.668e-06,1.53e-05,7.572e-06,8.926e-06,7.88e-06,1.1064e-05,8.64e-06,4.536e-06,1.204e-05,9.724e-06,4.996e-06,2.462e-06,1.808e-06,3.58e-06,4.772e-06,3.294e-06,1.6708e-06,4.366e-06,2.154e-06,3.864e-06,8.698e-06,1.3442e-05,1.4726e-05,1.3552e-05,9.76e-06,2.202e-05,1.6434e-05,1.2766e-05,1.101e-05,1.7522e-05
404,6.066e-06,1.388e-05,1.1456e-05,8.058e-06,5.326e-06,7.578e-06,1.3904e-06,4.922e-06,1.171e-05,2.294e-06,4.974e-06,1.4608e-05,7.904e-06,8.708e-06,7.98e-06,1.261e-05,7.028e-06,5.626e-06,1.1718e-05,1.2164e-05,5.678e-06,3.074e-06,2.106e-06,3.498e-06,3.39e-06,4.294e-06,0,4.272e-06,2.986e-06,4.202e-06,8.61e-06,1.38e-05,1.4598e-05,1.577e-05,1.2014e-05,2.13e-05,1.5658e-05,1.6102e-05,1.2664e-05,1.6312e-05
406,4.902e-06,1.4476e-05,9.46e-06,6.716e-06,8.21e-06,5.212e-06,2.27e-06,5.12e-06,1.1878e-05,3.78e-06,4.262e-06,1.4632e-05,9.344e-06,7.494e-06,6.904e-06,1.0674e-05,6.154e-06,5.604e-06,1.0714e-05,1.03e-05,5.912e-06,2.72e-06,1.138e-06,3.518e-06,3.32e-06,4.906e-06,8.712e-07,3.892e-06,3.688e-06,3.58e-06,9.008e-06,9.13e-06,8.254e-06,2.026e-05,1.0644e-05,2.518e-05,1.6618e-05,2.024e-05,1.2624e-05,1.5618e-05
408,7.654e-06,1.0466e-05,8.738e-06,8.196e-06,6.65e-06,5.822e-06,5.96e-06,3.6e-06,1.1532e-05,3.798e-06,5.868e-06,9.57e-06,6.792e-06,6.956e-06,6.6e-06,1.1082e-05,5.88e-06,3.232e-06,1.0512e-05,8.298e-06,4.564e-06,3.11e-06,8.96e-07,3.798e-06,3.288e-06,3.7e-06,2.18e-06,4.02e-06,2.844e-06,4.774e-06,8.344e-06,1.1528e-05,8.434e-06,1.432e-05,1.3736e-05,1.9634e-05,1.56e-05,2.01e-05,1.3068e-05,1.7708e-05
410,1.0822e-05,1.3088e-05,1.1162e-05,9.076e-06,6.124e-06,4.098e-06,1.7786e-06,6.622e-06,9.28e-06,4.82e-07,6.164e-06,9.82e-06,7.112e-06,6.232e-06,7.304e-06,1.0978e-05,8.342e-06,4.184e-06,1.1434e-05,1.0008e-05,4.938e-06,3.134e-06,1.2422e-06,3.746e-06,2.524e-06,4.374e-06,1.69e-06,3.802e-06,3.484e-06,4.242e-06,1.2236e-05,1.7814e-05,1.5742e-05,1.8158e-05,8.104e-06,2.048e-05,1.7702e-05,1.9458e-05,1.8236e-05,2.342e-05
412,1.3702e-05,1.698e-05,1.11e-05,9.408e-06,1.0534e-05,7.132e-06,6.064e-06,4.438e-06,1.0362e-05,4.072e-06,8.24e-06,1.0412e-05,7.604e-06,1.1862e-05,6.394e-06,1.1208e-05,8.762e-06,5.074e-06,9.918e-06,1.045e-05,3.88e-06,4.978e-06,8.018e-07,4.076e-06,2.796e-06,3.938e-06,2.582e-06,2.436e-06,2.696e-06,2.984e-06,1.1994e-05,1.8758e-05,1.5164e-05,1.7634e-05,1.5882e-05,2.416e-05,1.9482e-05,2.696e-05,1.9938e-05,2.442e-05
414,2.236e-05,2.4e-05,1.3452e-05,1.8226e-05,1.6314e-05,1.1298e-05,1.3858e-05,1.3434e-05,1.4514e-05,9.404e-06,7.602e-06,1.3558e-05,7.292e-06,6.642e-06,1.0238e-05,1.2754e-05,9.42e-06,5.598e-06,1.1882e-05,1.0714e-05,4.698e-06,3.788e-06,2.266e-06,4.524e-06,3.864e-06,4.136e-06,2.94e-06,3.786e-06,2.578e-06,3.586e-06,2.542e-05,3.152e-05,2.22e-05,2.726e-05,3.048e-05,3.092e-05,2.602e-05,3.326e-05,2.754e-05,2.706e-05
416,4.286e-05,4.288e-05,3.636e-05,3.848e-05,3.582e-05,3.264e-05,3.2e-05,3.15e-05,3.216e-05,2.812e-05,1.5108e-05,1.5958e-05,1.487e-05,1.5048e-05,1.4598e-05,1.7822e-05,1.3208e-05,1.135e-05,1.5192e-05,1.4778e-05,4.7e-06,4.086e-06,2.754e-06,5.326e-06,3.186e-06,4.39e-06,3.258e-06,4.252e-06,3.534e-06,2.846e-06,5.496e-05,5.79e-05,5.168e-05,5.826e-05,5.68e-05,5.956e-05,5.152e-05,6.016e-05,5.42e-05,5.4e-05
418,9.024e-05,8.988e-05,8.492e-05,8.616e-05,8.456e-05,7.368e-05,7.322e-05,7.362e-05,7.39e-05,7.018e-05,2.576e-05,2.688e-05,2.68e-05,2.764e-05,2.696e-05,2.632e-05,2.544e-05,1.9114e-05,2.492e-05,2.5e-05,5.524e-06,4.816e-06,3.19e-06,5.278e-06,3.46e-06,4.574e-06,4.348e-06,5.292e-06,4.288e-06,3.96e-06,0.00011932,0.00011968,0.0001157,0.00012088,0.00012142,0.00011588,0.00010306,0.00011484,0.00011126,0.00010996
420,0.00016628,0.00016302,0.00015696,0.00016238,0.00016006,0.00014206,0.00014398,0.00014126,0.0001425,0.00013824,4.286e-05,4.35e-05,4.532e-05,4.542e-05,4.378e-05,4.29e-05,4.18e-05,3.808e-05,4.218e-05,4.36e-05,5.608e-06,6.272e-06,3.538e-06,6.332e-06,5.124e-06,5.98e-06,5.022e-06,6.088e-06,6.128e-06,5.786e-06,0.0002232,0.0002244,0.0002196,0.000224,0.0002268,0.0002056,0.0002002,0.00021,0.000204,0.0002052
422,0.0002574,0.0002544,0.0002502,0.0002536,0.0002512,0.0002262,0.0002274,0.0002254,0.0002272,0.0002242,6.624e-05,6.478e-05,6.728e-05,6.666e-05,6.78e-05,6.344e-05,6.112e-05,6.006e-05,6.188e-05,6.308e-05,6.774e-06,8.352e-06,5.642e-06,7.448e-06,6.938e-06,7.614e-06,6.058e-06,7.416e-06,7.086e-06,6.824e-06,0.0003676,0.0003714,0.0003618,0.000369,0.0003686,0.0003352,0.0003292,0.000339,0.0003326,0.0003346
424,0.0003496,0.0003448,0.0003422,0.000343,0.0003412,0.0003124,0.0003112,0.0003096,0.0003114,0.0003098,8.94e-05,8.616e-05,8.81e-05,8.866e-05,8.95e-05,8.38e-05,8.446e-05,8.056e-05,8.234e-05,8.32e-05,9.306e-06,1.0512e-05,7.73e-06,9.708e-06,8.718e-06,9.524e-06,8.04e-06,9.116e-06,9.014e-06,8.346e-06,0.0005526,0.000553,0.0005456,0.0005476,0.000552,0.0005026,0.0004968,0.0005048,0.0005036,0.0005014
426,0.0004372,0.0004324,0.0004306,0.0004306,0.000431,0.0003924,0.0003904,0.0003924,0.0003922,0.000391,0.00011116,0.00010906,0.00011112,0.00011272,0.00011232,0.00010344,0.00010268,0.00010236,0.0001037,0.00010342,1.1746e-05,1.3772e-05,1.106e-05,1.2282e-05,1.1324e-05,1.1008e-05,1.126e-05,1.1664e-05,1.119e-05,1.0868e-05,0.0007854,0.0007846,0.0007782,0.0007834,0.0007884,0.0007136,0.0007098,0.0007194,0.0007106,0.0007148
428,0.0005144,0.0005064,0.0005038,0.0005082,0.0005074,0.0004654,0.0004668,0.0004634,0.0004612,0.0004652,0.00013338,0.000129,0.00013158,0.0001314,0.00013074,0.0001238,0.00012166,0.00012102,0.0001216,0.00012296,1.5246e-05,1.6494e-05,1.4204e-05,1.4886e-05,1.5636e-05,1.3984e-05,1.4258e-05,1.3874e-05,1.5296e-05,1.4148e-05,0.001041,0.0010406,0.0010378,0.0010376,0.0010456,0.000947,0.0009448,0.0009548,0.0009506,0.0009482
430,0.0005678,0.0005628,0.0005616,0.0005638,0.0005622,0.000519,0.0005184,0.0005164,0.0005158,0.0005164,0.00014784,0.00014424,0.00014686,0.0001476,0.0001491,0.00013714,0.00013814,0.00013614,0.0001377,0.00013718,1.8508e-05,1.9996e-05,1.7732e-05,1.8466e-05,1.8072e-05,1.703e-05,1.75e-05,1.7486e-05,1.7962e-05,1.7458e-05,0.0012598,0.0012604,0.001258,0.0012572,0.0012624,0.0011536,0.0011518,0.0011584,0.0011564,0.0011522
432,0.000581,0.0005752,0.0005742,0.000576,0.0005738,0.0005348,0.0005348,0.0005314,0.0005304,0.0005326,0.00015354,0.00014886,0.00015134,0.00015284,0.00015334,0.00014192,0.00014318,0.00014056,0.000143,0.0001421,2.094e-05,2.296e-05,2.144e-05,2.128e-05,2.102e-05,1.9796e-05,2.07e-05,1.9966e-05,2.106e-05,2.094e-05,0.0013906,0.0013936,0.001387,0.001388,0.0013936,0.0012802,0.0012786,0.0012862,0.0012836,0.0012802
434,0.0005244,0.0005176,0.0005146,0.0005176,0.0005188,0.0004864,0.0004872,0.0004862,0.0004842,0.0004866,0.00014314,0.00013776,0.0001412,0.0001417,0.00014102,0.00013328,0.00013378,0.00013216,0.00013324,0.0001326,2.39e-05,2.568e-05,2.456e-05,2.442e-05,2.418e-05,2.234e-05,2.38e-05,2.258e-05,2.318e-05,2.366e-05,0.0014044,0.0014052,0.0013998,0.0013982,0.0014076,0.0013008,0.0013006,0.0013068,0.0013018,0.0013008
436,0.000393,0.0003874,0.0003862,0.000388,0.0003892,0.0003692,0.000373,0.0003712,0.0003678,0.0003718,0.00011596,0.00011108,0.00011306,0.00011358,0.00011382,0.00010944,0.00010946,0.00010844,0.00010992,0.00010862,2.63e-05,2.842e-05,2.688e-05,2.654e-05,2.638e-05,2.432e-05,2.596e-05,2.462e-05,2.582e-05,2.55e-05,0.0013076,0.0013092,0.001302,0.0013022,0.0013098,0.0012178,0.0012196,0.001222,0.0012198,0.001221
438,0.0002408,0.0002348,0.000236,0.0002364,0.0002376,0.000229,0.000232,0.0002298,0.0002252,0.0002332,8.156e-05,7.686e-05,7.95e-05,8.038e-05,8.112e-05,7.722e-05,7.878e-05,7.516e-05,7.874e-05,7.668e-05,2.85e-05,3.068e-05,2.932e-05,2.932e-05,2.878e-05,2.678e-05,2.828e-05,2.664e-05,2.79e-05,2.78e-05,0.0011398,0.0011406,0.0011334,0.0011326,0.0011422,0.0010652,0.0010664,0.0010678,0.0010678,0.0010662
440,0.0001221,0.00011618,0.00011816,0.0001181,0.0001207,0.00011748,0.00011822,0.00011372,0.00011338,0.0001196,5.858e-05,5.328e-05,5.538e-05,5.732e-05,5.6e-05,5.352e-05,5.596e-05,5.358e-05,5.286e-05,5.522e-05,3.128e-05,3.306e-05,3.15e-05,3.176e-05,3.118e-05,2.836e-05,2.998e-05,2.9e-05,3.002e-05,2.976e-05,0.0009124,0.000914,0.000905,0.0009072,0.0009124,0.0008572,0.0008588,0.0008602,0.0008572,0.0008582
442,6.636e-05,6.226e-05,6.384e-05,6.428e-05,6.698e-05,6.352e-05,6.354e-05,5.89e-05,5.912e-05,6.226e-05,4.776e-05,4.314e-05,4.678e-05,4.884e-05,4.76e-05,4.504e-05,4.524e-05,4.464e-05,4.562e-05,4.54e-05,3.268e-05,3.624e-05,3.396e-05,3.298e-05,3.348e-05,3.142e-05,3.172e-05,3.112e-05,3.208e-05,3.216e-05,0.000631,0.0006354,0.0006306,0.0006272,0.0006318,0.0006012,0.0006034,0.0006012,0.000602,0.0006006
444,5.558e-05,5.288e-05,5.334e-05,5.272e-05,5.396e-05,5.13e-05,5.118e-05,4.74e-05,4.636e-05,5.11e-05,4.938e-05,4.358e-05,4.72e-05,4.836e-05,4.728e-05,4.408e-05,4.542e-05,4.436e-05,4.6e-05,4.396e-05,3.606e-05,3.834e-05,3.66e-05,3.568e-05,3.668e-05,3.316e-05,3.392e-05,3.378e-05,3.44e-05,3.422e-05,0.000389,0.000389,0.0003844,0.000383,0.000387,0.0003704,0.000372,0.0003718,0.0003708,0.0003746
446,5.38e-05,5.134e-05,5.188e-05,5.358e-05,5.61e-05,5.06e-05,5.116e-05,4.856e-05,4.62e-05,5.314e-05,5.226e-05,4.754e-05,5.116e-05,5.166e-05,5.1e-05,4.65e-05,4.82e-05,4.798e-05,4.952e-05,4.7e-05,3.918e-05,4.11e-05,4.004e-05,3.91e-05,3.976e-05,3.564e-05,3.74e-05,3.58e-05,3.758e-05,3.722e-05,0.0002138,0.0002172,0.0002116,0.0002102,0.000216,0.0002032,0.000205,0.0002044,0.0002032,0.0002046
448,5.866e-05,5.5e-05,5.718e-05,5.706e-05,5.906e-05,5.284e-05,5.564e-05,5.224e-05,4.972e-05,5.792e-05,5.584e-05,5.138e-05,5.564e-05,5.498e-05,5.474e-05,5.016e-05,5.09e-05,5.182e-05,5.278e-05,4.996e-05,4.318e-05,4.56e-05,4.41e-05,4.378e-05,4.39e-05,3.968e-05,4.1e-05,3.98e-05,4.156e-05,4.106e-05,0.00013414,0.00013474,0.0001319,0.0001302,0.0001372,0.00012452,0.00012666,0.000124,0.0001233,0.00012332
450,6.336e-05,5.968e-05,6.464e-05,6.17e-05,6.302e-05,5.812e-05,6.128e-05,5.734e-05,5.61e-05,6.236e-05,6.096e-05,5.65e-05,6.084e-05,6.172e-05,6.046e-05,5.528e-05,5.624e-05,5.662e-05,5.606e-05,5.512e-05,4.8e-05,5.07e-05,4.938e-05,4.848e-05,4.924e-05,4.496e-05,4.52e-05,4.492e-05,4.61e-05,4.52e-05,0.00011562,0.00011564,0.00011124,0.00011236,0.00011678,0.00010344,0.00010598,0.00010196,0.00010304,0.0001048
452,6.416e-05,6.454e-05,6.486e-05,6.566e-05,6.784e-05,6.248e-05,6.332e-05,6.048e-05,5.734e-05,6.58e-05,6.538e-05,6.242e-05,6.48e-05,6.592e-05,6.432e-05,5.98e-05,6.092e-05,6e-05,6.006e-05,5.912e-05,5.26e-05,5.47e-05,5.43e-05,5.294e-05,5.288e-05,4.86e-05,4.892e-05,4.812e-05,5.04e-05,4.86e-05,0.00011464,0.00011556,0.0001111,0.0001083,0.00011598,0.00010166,0.00010288,0.00010006,0.00010166,0.00010218
454,6.514e-05,6.674e-05,6.986e-05,6.594e-05,6.96e-05,6.342e-05,6.658e-05,5.968e-05,5.868e-05,6.438e-05,6.87e-05,6.23e-05,6.662e-05,7.016e-05,6.786e-05,6.174e-05,6.358e-05,6.544e-05,6.212e-05,6.016e-05,5.494e-05,5.65e-05,5.682e-05,5.486e-05,5.552e-05,5.086e-05,5.156e-05,5.002e-05,5.214e-05,5.118e-05,0.0001145,0.00011788,0.00011068,0.00011062,0.00011306,0.00010258,0.00010458,9.846e-05,0.00010186,0.0001013
456,6.702e-05,6.878e-05,7.038e-05,6.782e-05,7.04e-05,6.574e-05,6.544e-05,6.552e-05,5.812e-05,6.544e-05,7.072e-05,6.74e-05,6.964e-05,7.188e-05,6.908e-05,6.422e-05,6.676e-05,6.452e-05,6.554e-05,6.416e-05,5.768e-05,5.95e-05,5.978e-05,5.816e-05,5.902e-05,5.328e-05,5.45e-05,5.302e-05,5.492e-05,5.432e-05,0.00011518,0.0001173,0.00011348,0.0001128,0.0001145,0.00010242,0.00010706,9.726e-05,0.00010242,0.00010564
458,6.99e-05,7.224e-05,7.21e-05,7.128e-05,7.43e-05,6.842e-05,6.992e-05,6.892e-05,6.292e-05,6.84e-05,7.456e-05,7.164e-05,7.424e-05,7.484e-05,7.426e-05,6.764e-05,7.044e-05,7.202e-05,7.15e-05,6.868e-05,6.198e-05,6.394e-05,6.43e-05,6.282e-05,6.294e-05,5.802e-05,5.856e-05,5.768e-05,5.972e-05,5.846e-05,0.00011898,0.00011892,0.00011748,0.00011676,0.00011572,0.00010696,0.00011062,0.00010302,0.00010566,0.0001074
460,7.304e-05,7.526e-05,7.806e-05,7.53e-05,7.972e-05,7.272e-05,7.536e-05,7.184e-05,6.708e-05,7.324e-05,7.94e-05,7.82e-05,8.06e-05,8.154e-05,7.946e-05,7.28e-05,7.452e-05,7.766e-05,7.396e-05,7.16e-05,6.69e-05,6.854e-05,6.886e-05,6.76e-05,6.788e-05,6.236e-05,6.228e-05,6.182e-05,6.346e-05,6.24e-05,0.00012188,0.00012318,0.00012022,0.00012094,0.0001195,0.00011032,0.00011162,0.0001048,0.0001088,0.00011168
462,7.596e-05,7.896e-05,8.29e-05,8.012e-05,8.29e-05,7.636e-05,7.73e-05,7.744e-05,7.246e-05,7.632e-05,8.484e-05,8.306e-05,8.56e-05,8.836e-05,8.446e-05,7.734e-05,7.854e-05,8.166e-05,7.836e-05,7.738e-05,7.14e-05,7.274e-05,7.404e-05,7.236e-05,7.278e-05,6.698e-05,6.698e-05,6.578e-05,6.804e-05,6.67e-05,0.00012586,0.00012638,0.00012702,0.0001241,0.0001234,0.00011126,0.0001161,0.00010796,0.0001122,0.00011412
464,7.996e-05,8.51e-05,8.462e-05,8.426e-05,8.672e-05,7.966e-05,8.208e-05,8.194e-05,7.82e-05,8.122e-05,8.942e-05,8.976e-05,9.19e-05,9.264e-05,9.054e-05,8.348e-05,8.346e-05,8.732e-05,8.608e-05,8.404e-05,7.718e-05,7.88e-05,7.96e-05,7.742e-05,7.814e-05,7.108e-05,7.158e-05,7.088e-05,7.278e-05,7.11e-05,0.00013146,0.00012772,0.00013138,0.00012974,0.0001293,0.00011638,0.00012216,0.00011182,0.00011516,0.00012036
466,8.71e-05,8.954e-05,9.296e-05,8.844e-05,9.124e-05,8.502e-05,8.662e-05,8.602e-05,8.318e-05,8.57e-05,9.498e-05,9.616e-05,9.802e-05,9.712e-05,9.698e-05,8.99e-05,9.064e-05,9.292e-05,8.946e-05,8.92e-05,8.34e-05,8.364e-05,8.47e-05,8.3e-05,8.35e-05,7.65e-05,7.738e-05,7.642e-05,7.816e-05,7.716e-05,0.00013822,0.00013416,0.00013394,0.00013482,0.00013416,0.00012416,0.00012526,0.0001164,0.00012132,0.0001264
468,9.132e-05,9.856e-05,9.72e-05,9.268e-05,9.318e-05,8.836e-05,9.14e-05,9.208e-05,8.638e-05,9.22e-05,0.00010566,0.00010618,0.00010726,0.0001081,0.00010686,9.844e-05,9.684e-05,9.994e-05,9.816e-05,9.712e-05,9.064e-05,9.078e-05,9.198e-05,9.088e-05,9.218e-05,8.434e-05,8.286e-05,8.278e-05,8.422e-05,8.444e-05,0.00014368,0.00013872,0.00014654,0.00014108,0.0001379,0.00013136,0.0001307,0.00012378,0.00012912,0.00013262
470,9.418e-05,9.814e-05,9.792e-05,9.572e-05,9.59e-05,8.99e-05,9.278e-05,9.302e-05,9.042e-05,9.152e-05,0.00010892,0.00011088,0.00011132,0.00011152,0.00010982,0.00010092,0.00010188,0.00010494,0.00010144,0.00010174,9.494e-05,9.482e-05,9.658e-05,9.582e-05,9.644e-05,8.756e-05,8.732e-05,8.704e-05,8.804e-05,8.828e-05,0.00014628,0.0001426,0.00014608,0.0001434,0.00014166,0.00013418,0.0001375,0.0001281,0.00013178,0.00013558
472,9.512e-05,9.854e-05,0.00010072,9.728e-05,9.752e-05,8.948e-05,9.552e-05,9.296e-05,9.094e-05,9.208e-05,0.0001112,0.0001148,0.00011444,0.00011446,0.00011192,0.00010332,0.00010212,0.00010804,0.00010314,0.00010536,9.752e-05,9.714e-05,9.954e-05,9.808e-05,9.91e-05,8.92e-05,9.01e-05,8.936e-05,9.006e-05,8.962e-05,0.0001464,0.0001432,0.00014438,0.00014584,0.0001452,0.00013332,0.00013674,0.00012668,0.00013024,0.00013754
474,9.548e-05,9.872e-05,9.93e-05,9.638e-05,9.666e-05,9.052e-05,9.328e-05,9.462e-05,9.082e-05,9.066e-05,0.00011386,0.00011662,0.00011634,0.00011598,0.00011412,0.00010426,0.00010442,0.0001087,0.00010418,0.00010682,0.0001002,9.908e-05,0.00010144,0.0001002,0.00010066,9.234e-05,9.106e-05,9.098e-05,9.224e-05,9.126e-05,0.0001453,0.00014236,0.00014452,0.00014292,0.00014232,0.00013184,0.00013652,0.0001257,0.00012984,0.00013512
476,9.386e-05,9.61e-05,9.57e-05,9.278e-05,9.254e-05,8.838e-05,8.948e-05,9.148e-05,9.05e-05,8.932e-05,0.00011202,0.00011568,0.0001135,0.0001166,0.00011358,0.00010416,0.00010268,0.00010786,0.00010344,0.00010456,9.984e-05,9.916e-05,0.000101,0.00010046,0.00010036,9.238e-05,8.978e-05,9.066e-05,9.124e-05,9.12e-05,0.0001401,0.00013612,0.0001413,0.00013976,0.00013574,0.00012688,0.00013082,0.00012118,0.0001252,0.00013146
478,9.354e-05,9.35e-05,9.658e-05,9.32e-05,9.258e-05,8.82e-05,8.942e-05,9.044e-05,8.78e-05,8.666e-05,0.00011178,0.00011806,0.00011498,0.00011522,0.00011344,0.00010414,0.00010274,0.00010814,0.00010296,0.00010558,0.00010082,9.982e-05,0.00010172,0.00010098,0.00010162,9.336e-05,9.124e-05,9.224e-05,9.194e-05,9.254e-05,0.00013642,0.0001326,0.00013624,0.0001384,0.00013334,0.00012498,0.00012416,0.00011906,0.00012312,0.00012792
480,9.562e-05,9.858e-05,9.928e-05,9.866e-05,9.448e-05,9.06e-05,9.264e-05,9.28e-05,9.188e-05,8.882e-05,0.0001185,0.00012084,0.00012094,0.0001218,0.00012046,0.0001091,0.00010806,0.00010884,0.00010896,0.00011076,0.00010616,0.0001055,0.00010742,0.0001071,0.00010674,9.864e-05,9.602e-05,9.696e-05,9.654e-05,9.78e-05,0.0001355,0.0001343,0.00014018,0.00013988,0.00013534,0.00012464,0.00012812,0.00012312,0.00012856,0.0001295
482,0.0001014,0.0001049,0.00010216,0.0001028,9.958e-05,9.684e-05,9.414e-05,9.726e-05,9.542e-05,9.376e-05,0.00012834,0.00013122,0.00013082,0.00012912,0.00012916,0.00011824,0.0001155,0.00011856,0.00011676,0.00011894,0.00011522,0.0001137,0.00011582,0.00011574,0.00011654,0.00010604,0.00010448,0.00010524,0.00010578,0.0001054,0.00014126,0.00013938,0.00014406,0.00014416,0.00013732,0.00013034,0.00013306,0.00013074,0.00012914,0.00013532
484,0.00010332,0.00010428,0.0001039,0.00010448,0.00010068,9.552e-05,9.572e-05,9.838e-05,9.744e-05,9.306e-05,0.00013424,0.00013718,0.00013572,0.00013562,0.00013366,0.00012394,0.00012166,0.00012416,0.00012182,0.00012396,0.00012122,0.00012016,0.00012154,0.00012222,0.00012292,0.00011292,0.00010958,0.00011116,0.00011142,0.00011066,0.00014436,0.00013834,0.0001461,0.00014514,0.00014012,0.00013028,0.00013424,0.00013092,0.00013164,0.00013624
486,0.0001021,0.00010306,0.00010258,0.00010582,0.00010016,9.668e-05,9.386e-05,0.00010014,9.75e-05,9.33e-05,0.00014014,0.00014496,0.00014266,0.00014212,0.00014272,0.00012924,0.0001278,0.00012962,0.00012788,0.00013072,0.00012878,0.00012722,0.00012846,0.00012932,0.0001297,0.00011878,0.0001162,0.00011698,0.00011678,0.0001167,0.00014346,0.00013768,0.00014552,0.0001435,0.00013876,0.00013092,0.00013446,0.00013258,0.00013284,0.00013584
488,0.00010454,0.00010454,0.00010528,0.0001054,0.00010144,9.882e-05,9.328e-05,0.00010154,0.00010044,9.534e-05,0.00016806,0.00017226,0.00017102,0.00016964,0.00017324,0.00015476,0.0001518,0.00015378,0.00015156,0.00015624,0.00015498,0.0001538,0.0001551,0.00015592,0.0001558,0.00014068,0.000138,0.00013968,0.00013856,0.00013868,0.00014898,0.00014462,0.00014968,0.0001506,0.00014604,0.0001373,0.00013968,0.00013806,0.00014096,0.0001417
490,0.0001094,0.00011058,0.00011024,0.00011098,0.00010692,0.00010224,9.778e-05,0.00010388,0.0001026,9.96e-05,0.0002598,0.0002652,0.0002634,0.000262,0.0002646,0.0002346,0.0002314,0.0002322,0.0002304,0.000235,0.0002372,0.0002364,0.000237,0.000238,0.0002378,0.0002108,0.0002082,0.0002104,0.0002082,0.0002086,0.00016882,0.00016522,0.0001715,0.00017142,0.00016784,0.0001545,0.00015516,0.00015626,0.00015676,0.00015928
492,0.00011558,0.00011948,0.00011498,0.00011822,0.00011314,0.00010598,0.00010458,0.00010874,0.00010998,0.00010492,0.0004648,0.0004706,0.0004698,0.0004686,0.00047,0.0004136,0.0004126,0.0004134,0.0004116,0.0004144,0.0004102,0.0004104,0.0004092,0.0004108,0.0004102,0.0003632,0.0003596,0.0003616,0.0003602,0.0003606,0.0002056,0.0002012,0.0002088,0.0002084,0.0002062,0.00018654,0.00018888,0.0001911,0.0001919,0.00019312
494,0.0001201,0.00012096,0.00012328,0.00012402,0.00011906,0.00011292,0.00011014,0.00011328,0.00011414,0.00010896,0.0008428,0.0008474,0.0008492,0.0008456,0.0008462,0.0007506,0.0007498,0.0007518,0.0007476,0.0007506,0.0006856,0.0006854,0.0006854,0.000687,0.0006862,0.0006108,0.0006076,0.0006096,0.000607,0.0006082,0.0002602,0.0002568,0.000266,0.0002618,0.0002588,0.0002372,0.0002378,0.0002408,0.0002406,0.0002428
496,0.00012794,0.00012734,0.00012666,0.00012878,0.00012478,0.00011644,0.00011398,0.0001164,0.00011606,0.000111,0.001373,0.001376,0.0013766,0.0013788,0.0013758,0.0012258,0.001221,0.0012298,0.001222,0.0012258,0.0009636,0.0009628,0.000963,0.000965,0.0009636,0.0008654,0.0008622,0.0008646,0.0008624,0.0008622,0.000309,0.000304,0.000309,0.0003086,0.0003076,0.0002794,0.0002836,0.000285,0.0002838,0.000287
498,0.00013544,0.00013656,0.00013642,0.00013728,0.00013226,0.00012328,0.00012054,0.00012356,0.00012418,0.00011836,0.002086,0.00209,0.002092,0.0021,0.002088,0.001873,0.001867,0.0018846,0.0018686,0.001871,0.0012164,0.001216,0.0012152,0.0012178,0.0012166,0.0011004,0.0010972,0.0010984,0.0010972,0.001098,0.000346,0.000344,0.000348,0.000344,0.000344,0.0003148,0.0003192,0.0003232,0.0003236,0.0003196
500,0.00014958,0.00015114,0.0001508,0.00015124,0.00014744,0.00013664,0.0001337,0.00013392,0.00013668,0.00013366,0.00293,0.002932,0.002934,0.00296,0.002932,0.00265,0.002642,0.002676,0.002642,0.002646,0.0014392,0.0014396,0.0014384,0.0014408,0.0014396,0.0013088,0.001306,0.0013072,0.001307,0.001307,0.0003738,0.0003726,0.0003752,0.0003726,0.0003738,0.0003408,0.0003454,0.000348,0.0003502,0.0003462
502,0.00016614,0.00016696,0.00016726,0.00016744,0.00016442,0.00015288,0.00014878,0.0001496,0.00015138,0.00014876,0.003742,0.003746,0.00375,0.003796,0.003746,0.00341,0.0034,0.003456,0.003402,0.003404,0.0016178,0.0016188,0.0016176,0.0016198,0.0016188,0.0014774,0.001475,0.0014764,0.001476,0.0014758,0.000395,0.0003916,0.0003912,0.0003926,0.0003924,0.0003602,0.000362,0.0003668,0.0003692,0.000363
504,0.00017824,0.00017808,0.00017846,0.00018046,0.00017636,0.00016378,0.00016014,0.00016138,0.00016448,0.00016022,0.004368,0.004368,0.004372,0.004428,0.00437,0.004002,0.003992,0.004056,0.003992,0.003996,0.0017344,0.0017352,0.001734,0.0017362,0.0017356,0.00159,0.0015888,0.0015894,0.0015892,0.001589,0.0004022,0.0003988,0.0004014,0.0004016,0.0004012,0.0003716,0.0003722,0.0003768,0.0003772,0.0003728
506,0.00018656,0.00018466,0.00018502,0.00018902,0.00018518,0.00017128,0.00016856,0.00016792,0.00016806,0.00016864,0.004698,0.004698,0.004702,0.004742,0.004702,0.004328,0.00432,0.00437,0.00432,0.004326,0.0017464,0.001746,0.001745,0.0017472,0.001748,0.0016118,0.0016112,0.0016098,0.0016102,0.0016104,0.0003876,0.000387,0.0003902,0.0003872,0.0003898,0.0003626,0.0003632,0.0003678,0.0003682,0.0003618
508,0.0001911,0.00018984,0.00018918,0.00019216,0.00018864,0.00017522,0.00017246,0.00017054,0.00017288,0.00017028,0.004682,0.00468,0.004684,0.004692,0.004684,0.004328,0.004328,0.00434,0.004326,0.00433,0.0015926,0.0015924,0.0015918,0.0015936,0.0015942,0.0014864,0.0014846,0.0014838,0.0014846,0.0014848,0.0003494,0.0003502,0.0003518,0.000348,0.0003492,0.0003274,0.0003306,0.0003356,0.0003342,0.0003272
510,0.00019042,0.00018962,0.00018992,0.00019224,0.00018922,0.0001755,0.0001725,0.00017284,0.0001728,0.00017272,0.004398,0.004394,0.0044,0.004378,0.004398,0.004082,0.004084,0.004066,0.004084,0.004086,0.0013068,0.0013056,0.0013054,0.0013064,0.0013076,0.0012336,0.0012322,0.0012316,0.0012322,0.001233,0.0002964,0.0002964,0.000298,0.0002952,0.0002988,0.0002812,0.0002814,0.0002848,0.0002848,0.0002794
512,0.00018806,0.00018782,0.00018798,0.00018886,0.00018944,0.00017452,0.00017112,0.00017216,0.0001737,0.0001708,0.003854,0.003848,0.003852,0.00381,0.003852,0.0036,0.003608,0.003564,0.003608,0.003608,0.0009734,0.0009722,0.0009716,0.0009724,0.0009726,0.0009282,0.000927,0.0009268,0.0009272,0.000928,0.000254,0.0002542,0.0002524,0.0002528,0.0002546,0.0002396,0.000236,0.0002456,0.0002434,0.0002372
514,0.0001801,0.00017884,0.00018182,0.00018032,0.0001814,0.0001681,0.00016484,0.00016518,0.00016774,0.00016438,0.003,0.002994,0.002996,0.002946,0.002996,0.002836,0.002848,0.002794,0.00285,0.00285,0.0006806,0.00068,0.0006788,0.0006792,0.00068,0.0006528,0.0006524,0.0006528,0.0006534,0.0006534,0.0002274,0.0002294,0.0002272,0.000227,0.000228,0.000215,0.0002112,0.0002212,0.0002178,0.0002108
516,0.0001662,0.00016554,0.00016556,0.00016626,0.00016892,0.00015722,0.0001533,0.00015368,0.00015306,0.00015496,0.0019338,0.0019296,0.0019306,0.0018956,0.0019298,0.0018628,0.0018748,0.001831,0.0018738,0.0018758,0.000453,0.0004526,0.0004516,0.0004518,0.0004524,0.0004368,0.0004378,0.000437,0.0004382,0.0004376,0.0002122,0.0002112,0.000211,0.0002124,0.000217,0.00019946,0.00019948,0.000204,0.0002042,0.00019718
518,0.00015732,0.00015338,0.00015676,0.00015734,0.00015588,0.00014558,0.00014444,0.00014338,0.00014316,0.00014386,0.0009398,0.000937,0.0009356,0.0009238,0.0009384,0.000922,0.0009296,0.0009106,0.0009286,0.00093,0.0002848,0.000285,0.0002838,0.0002842,0.0002836,0.0002744,0.0002754,0.0002746,0.0002752,0.000275,0.0002022,0.000206,0.0002044,0.0002026,0.0002074,0.00019264,0.00019196,0.000194,0.00019356,0.00018696
520,0.00015448,0.00015296,0.00015418,0.00015402,0.00015382,0.00014328,0.00014098,0.00013988,0.00014176,0.00014234,0.0004318,0.0004306,0.0004308,0.0004288,0.000431,0.0004228,0.000426,0.0004194,0.0004248,0.0004258,0.0002072,0.000207,0.0002054,0.000206,0.0002058,0.00019612,0.00019668,0.00019556,0.00019708,0.00019578,0.0002022,0.000204,0.0002044,0.0002022,0.0002076,0.0001895,0.00019138,0.00019264,0.00019312,0.00018586
522,0.00015366,0.000154,0.00015454,0.00015384,0.0001558,0.00014438,0.00014258,0.0001417,0.00014172,0.00014332,0.0002822,0.0002804,0.0002816,0.0002834,0.0002818,0.0002688,0.0002696,0.000268,0.0002698,0.00027,0.00018462,0.00018396,0.00018216,0.00018338,0.0001832,0.00017174,0.00017264,0.00017132,0.000173,0.000172,0.000205,0.000207,0.000204,0.000204,0.0002076,0.00019342,0.00019352,0.00019516,0.00019632,0.00018922
524,0.00015748,0.00015748,0.00015944,0.00015638,0.00015928,0.00014816,0.00014742,0.00014414,0.00014508,0.00014694,0.0002528,0.000251,0.0002512,0.0002534,0.0002516,0.0002368,0.0002364,0.000237,0.000237,0.000237,0.0001788,0.00017902,0.00017758,0.00017798,0.00017728,0.00016588,0.00016678,0.00016536,0.00016686,0.00016672,0.0002104,0.0002132,0.000208,0.000209,0.000212,0.00019814,0.00019764,0.00019888,0.0001995,0.00019238
526,0.00016326,0.00016008,0.000163,0.00016202,0.00016296,0.00015228,0.00015048,0.00014866,0.00014954,0.00015154,0.0002502,0.0002476,0.0002486,0.0002496,0.0002482,0.0002332,0.0002336,0.0002326,0.000234,0.000233,0.0001778,0.00017752,0.00017636,0.00017646,0.00017592,0.00016444,0.00016504,0.00016406,0.00016584,0.00016532,0.0002152,0.0002168,0.0002136,0.0002142,0.0002172,0.0002018,0.0002016,0.0002012,0.0002006,0.00019698
528,0.00016532,0.0001636,0.00016836,0.0001638,0.00016622,0.00015352,0.00015336,0.00015154,0.00015388,0.00015564,0.0002502,0.000247,0.0002484,0.0002506,0.0002474,0.0002318,0.0002332,0.0002322,0.0002336,0.0002324,0.00017584,0.00017654,0.00017482,0.00017504,0.0001749,0.00016264,0.00016416,0.0001635,0.00016544,0.00016422,0.0002192,0.0002216,0.0002184,0.0002192,0.0002218,0.0002042,0.0002042,0.0002042,0.0002044,0.0002026
530,0.00016928,0.0001667,0.00016944,0.00016742,0.0001715,0.00015648,0.00015806,0.00015554,0.00015744,0.00015742,0.0002466,0.0002448,0.0002452,0.0002486,0.0002442,0.000231,0.0002318,0.0002304,0.0002314,0.0002302,0.00017494,0.00017528,0.00017454,0.00017392,0.00017372,0.00016192,0.00016322,0.00016228,0.00016392,0.00016376,0.0002234,0.0002268,0.0002218,0.0002226,0.0002252,0.0002134,0.0002108,0.0002092,0.0002096,0.0002062
532,0.00017274,0.00017202,0.00017352,0.00017152,0.00017398,0.00015994,0.00016214,0.00016004,0.0001618,0.0001614,0.000244,0.000241,0.0002432,0.0002466,0.0002412,0.0002272,0.0002284,0.0002268,0.0002288,0.000227,0.00017512,0.00017502,0.00017462,0.00017402,0.00017422,0.0001624,0.00016352,0.00016202,0.00016388,0.00016332,0.0002284,0.0002318,0.0002288,0.000229,0.0002316,0.0002162,0.0002148,0.000216,0.0002168,0.0002124
534,0.00017822,0.00017536,0.00017762,0.0001739,0.00017838,0.00016444,0.0001656,0.00016388,0.00016362,0.0001656,0.0002422,0.0002392,0.0002412,0.0002448,0.0002392,0.000226,0.000226,0.0002248,0.0002266,0.0002244,0.00017492,0.00017512,0.0001752,0.00017434,0.00017474,0.00016252,0.0001641,0.00016248,0.00016418,0.00016322,0.0002332,0.0002356,0.0002328,0.000234,0.0002374,0.000222,0.0002218,0.0002186,0.0002214,0.0002178
536,0.00018116,0.00017842,0.00018286,0.0001791,0.00018214,0.00016876,0.00017,0.0001686,0.00016904,0.00017048,0.0002428,0.0002384,0.0002406,0.0002434,0.0002388,0.0002252,0.0002256,0.0002258,0.0002266,0.0002244,0.00017654,0.00017626,0.0001766,0.000175,0.00017608,0.0001634,0.00016454,0.00016304,0.0001651,0.00016426,0.0002398,0.0002428,0.0002386,0.000241,0.000244,0.0002286,0.0002292,0.000225,0.0002256,0.0002234
538,0.0001837,0.00018392,0.00018696,0.00018242,0.0001875,0.00017296,0.0001746,0.00017282,0.0001738,0.0001757,0.0002438,0.0002392,0.000241,0.0002446,0.00024,0.000227,0.0002264,0.000227,0.0002268,0.0002256,0.00017738,0.00017774,0.00017784,0.00017696,0.00017792,0.00016492,0.00016586,0.00016432,0.00016626,0.00016566,0.0002462,0.0002528,0.000247,0.0002486,0.0002512,0.0002352,0.0002364,0.0002326,0.0002348,0.0002298
540,0.00019072,0.00018732,0.0001913,0.00018764,0.00019046,0.0001782,0.00017998,0.00017812,0.00017762,0.00018076,0.0002446,0.0002418,0.0002422,0.0002476,0.000243,0.0002288,0.0002282,0.0002292,0.0002282,0.0002264,0.0001787,0.0001792,0.0001794,0.00017822,0.00017896,0.00016666,0.00016724,0.00016592,0.00016776,0.00016726,0.000255,0.000261,0.0002556,0.0002588,0.0002596,0.000242,0.0002422,0.0002412,0.0002416,0.0002394
542,0.00019542,0.00019552,0.00019838,0.00019498,0.00019788,0.00018418,0.00018468,0.000184,0.00018454,0.00018664,0.0002468,0.0002436,0.0002446,0.0002486,0.0002444,0.0002322,0.0002302,0.0002304,0.0002306,0.0002302,0.00018128,0.00018148,0.00018228,0.0001801,0.00018222,0.00016842,0.00016926,0.00016832,0.0001703,0.0001695,0.0002676,0.0002716,0.0002652,0.0002692,0.0002724,0.0002532,0.0002532,0.0002516,0.0002514,0.0002518
544,0.0002022,0.0002018,0.0002036,0.0002016,0.0002038,0.00018994,0.00019066,0.00018964,0.00019134,0.00019228,0.0002494,0.0002454,0.0002468,0.0002516,0.0002464,0.0002338,0.0002338,0.0002334,0.0002324,0.0002324,0.00018392,0.00018368,0.00018442,0.00018282,0.00018422,0.0001706,0.00017214,0.00017042,0.00017224,0.00017174,0.0002794,0.0002832,0.0002798,0.0002796,0.0002832,0.0002646,0.0002654,0.0002614,0.0002636,0.0002618
546,0.0002066,0.0002074,0.0002094,0.0002066,0.0002086,0.00019528,0.0001967,0.00019488,0.00019658,0.0001978,0.00025,0.0002458,0.000248,0.0002514,0.0002468,0.000234,0.0002342,0.0002356,0.0002332,0.0002326,0.0001852,0.00018518,0.00018592,0.00018442,0.00018578,0.00017224,0.00017358,0.00017192,0.00017364,0.00017328,0.0002916,0.0002958,0.0002934,0.000294,0.0002944,0.0002744,0.000278,0.0002718,0.000276,0.0002742
548,0.000213,0.0002128,0.0002152,0.0002122,0.0002144,0.000201,0.0002022,0.0002026,0.0002014,0.0002042,0.0002496,0.0002472,0.0002482,0.0002516,0.000248,0.0002352,0.000235,0.0002354,0.0002338,0.0002338,0.0001867,0.00018716,0.00018812,0.00018618,0.00018764,0.0001745,0.00017544,0.00017416,0.00017534,0.0001748,0.0003066,0.0003104,0.0003086,0.000309,0.000311,0.0002904,0.000291,0.0002864,0.0002888,0.0002876
550,0.0002186,0.0002186,0.0002196,0.0002174,0.0002198,0.0002064,0.0002074,0.0002088,0.0002078,0.0002088,0.00025,0.0002474,0.000249,0.0002514,0.0002482,0.0002362,0.0002358,0.0002348,0.0002332,0.0002336,0.00018804,0.0001884,0.00018974,0.00018772,0.00018948,0.00017678,0.00017698,0.00017566,0.00017648,0.00017624,0.0003236,0.0003286,0.0003272,0.0003272,0.0003282,0.0003064,0.0003082,0.0003032,0.000305,0.0003044
552,0.0002256,0.0002266,0.0002282,0.0002242,0.000227,0.0002134,0.000214,0.0002142,0.000214,0.0002144,0.0002508,0.0002486,0.0002504,0.0002522,0.0002486,0.0002368,0.000235,0.0002366,0.0002344,0.0002334,0.00019004,0.00018962,0.00019126,0.00018946,0.0001907,0.00017824,0.00017852,0.00017724,0.00017764,0.00017782,0.0003472,0.0003512,0.0003488,0.000349,0.0003486,0.0003292,0.0003268,0.000324,0.0003244,0.0003256
554,0.0002324,0.0002332,0.000235,0.000232,0.000233,0.0002202,0.00022,0.0002194,0.0002202,0.0002214,0.0002512,0.0002476,0.0002502,0.0002534,0.0002474,0.0002362,0.0002344,0.0002356,0.0002332,0.0002342,0.00019072,0.00019034,0.0001921,0.00019108,0.00019198,0.0001789,0.00017952,0.00017862,0.00017888,0.0001792,0.0003776,0.0003794,0.0003786,0.0003772,0.000378,0.0003538,0.0003542,0.0003502,0.0003508,0.0003518
556,0.0002396,0.0002394,0.0002404,0.0002396,0.000239,0.000226,0.0002258,0.000226,0.0002254,0.0002258,0.0002494,0.000247,0.00025,0.0002516,0.0002496,0.0002374,0.0002348,0.000235,0.0002332,0.0002344,0.00019164,0.00019178,0.000193,0.00019178,0.00019272,0.00017986,0.00018018,0.00017966,0.00017944,0.00017974,0.0004222,0.0004238,0.000422,0.0004208,0.0004214,0.0003916,0.0003944,0.0003904,0.0003918,0.0003922
558,0.000247,0.000247,0.0002484,0.000247,0.0002466,0.0002328,0.0002332,0.0002334,0.0002338,0.0002322,0.0002498,0.000248,0.0002498,0.0002512,0.00025,0.000237,0.0002342,0.0002362,0.0002328,0.0002356,0.00019254,0.00019278,0.00019378,0.00019234,0.00019392,0.00018084,0.00018062,0.00018058,0.00018018,0.00018054,0.0005366,0.0005354,0.0005348,0.000535,0.0005352,0.0004886,0.0004894,0.000487,0.0004888,0.00049
560,0.0002558,0.0002564,0.0002582,0.0002562,0.0002562,0.00024,0.000242,0.000243,0.0002422,0.0002426,0.0002502,0.0002492,0.000251,0.0002522,0.0002494,0.0002368,0.0002348,0.000237,0.0002336,0.0002368,0.0001935,0.00019326,0.00019488,0.00019314,0.00019492,0.0001819,0.00018182,0.00018176,0.00018072,0.00018154,0.0008504,0.0008484,0.0008472,0.0008478,0.000848,0.0007604,0.0007596,0.0007594,0.000758,0.0007612
562,0.0002678,0.0002674,0.0002684,0.0002676,0.0002666,0.0002494,0.0002512,0.000253,0.0002518,0.0002526,0.0002506,0.0002492,0.0002512,0.0002514,0.0002492,0.0002372,0.0002358,0.0002366,0.0002332,0.000236,0.00019388,0.00019376,0.00019536,0.00019436,0.00019592,0.00018236,0.00018256,0.0001818,0.00018112,0.00018172,0.0015338,0.0015322,0.0015304,0.0015312,0.0015324,0.0013646,0.0013648,0.0013648,0.0013626,0.0013646
564,0.0002854,0.000287,0.0002872,0.0002846,0.000284,0.0002658,0.000268,0.0002688,0.0002674,0.0002686,0.0002498,0.0002498,0.0002522,0.0002508,0.0002526,0.0002378,0.0002362,0.0002364,0.000234,0.000237,0.00019506,0.00019496,0.0001962,0.00019566,0.00019614,0.00018334,0.00018302,0.00018328,0.00018204,0.0001819,0.00279,0.002786,0.002782,0.002784,0.002786,0.002498,0.002502,0.002506,0.002496,0.002496
566,0.000315,0.0003156,0.0003164,0.000315,0.0003136,0.0002938,0.0002956,0.0002952,0.0002932,0.0002936,0.0002526,0.0002532,0.0002542,0.000254,0.0002538,0.0002384,0.0002372,0.000239,0.0002356,0.000239,0.00019786,0.00019676,0.00019768,0.00019716,0.00019818,0.00018524,0.00018496,0.00018486,0.00018368,0.00018356,0.004268,0.004264,0.004262,0.004264,0.004272,0.003854,0.003862,0.003864,0.00385,0.003854
568,0.000375,0.0003746,0.0003756,0.0003732,0.0003734,0.0003464,0.0003454,0.0003456,0.0003448,0.000344,0.000255,0.0002558,0.0002564,0.0002552,0.0002556,0.0002418,0.0002398,0.0002406,0.0002384,0.0002412,0.00019952,0.00019904,0.00019944,0.00019916,0.0002002,0.00018724,0.00018636,0.00018674,0.00018554,0.00018542,0.005848,0.005848,0.005838,0.005842,0.005848,0.005314,0.005322,0.005324,0.005304,0.005306
570,0.0005274,0.0005274,0.0005284,0.000527,0.000526,0.0004778,0.000476,0.0004758,0.0004754,0.0004734,0.0002582,0.000259,0.0002596,0.0002596,0.0002602,0.000245,0.0002438,0.000243,0.0002414,0.0002442,0.0002016,0.0002014,0.0002016,0.0002016,0.0002024,0.00018944,0.00018818,0.00018842,0.00018718,0.00018718,0.007464,0.007462,0.007446,0.00745,0.007458,0.006802,0.006816,0.00682,0.006794,0.006794
572,0.0009138,0.0009148,0.0009172,0.000914,0.0009122,0.0008192,0.0008102,0.0008106,0.0008124,0.0008096,0.0002658,0.000267,0.0002676,0.0002668,0.0002682,0.000251,0.0002498,0.00025,0.000249,0.0002498,0.0002046,0.000204,0.0002048,0.0002052,0.0002056,0.00019228,0.00019136,0.00019148,0.00019034,0.00018964,0.009046,0.009046,0.009022,0.009028,0.009036,0.008268,0.00829,0.008296,0.008262,0.008264
574,0.001738,0.0017388,0.0017528,0.0017376,0.0017386,0.0015634,0.0015482,0.0015456,0.0015532,0.001549,0.0002792,0.0002812,0.0002796,0.0002782,0.0002816,0.000263,0.0002612,0.0002628,0.0002592,0.0002628,0.0002088,0.0002088,0.000209,0.0002098,0.00021,0.00019558,0.0001949,0.00019514,0.00019454,0.00019382,0.010598,0.010596,0.010562,0.010576,0.010582,0.00971,0.009742,0.00975,0.009706,0.009708
576,0.003002,0.003,0.003042,0.003,0.003002,0.002728,0.002702,0.002696,0.002718,0.002706,0.0003016,0.0003046,0.0003046,0.0003016,0.0003052,0.000283,0.0002824,0.0002842,0.0002802,0.0002824,0.0002174,0.0002166,0.0002168,0.0002176,0.0002182,0.000203,0.0002018,0.000202,0.0002016,0.0002014,0.011924,0.011926,0.011884,0.0119,0.011904,0.010962,0.011004,0.011014,0.010962,0.01096
578,0.004348,0.004346,0.004446,0.004346,0.004348,0.003988,0.003948,0.003938,0.003978,0.003958,0.0003378,0.0003412,0.0003386,0.0003374,0.00034,0.0003152,0.0003128,0.0003158,0.0003118,0.0003134,0.0002312,0.000231,0.0002308,0.0002318,0.000232,0.0002156,0.0002142,0.0002146,0.000214,0.0002136,0.012774,0.01278,0.012734,0.012754,0.012756,0.011782,0.01183,0.011838,0.011782,0.011782
580,0.005738,0.005734,0.005912,0.005736,0.00574,0.005304,0.005244,0.005222,0.005294,0.005258,0.0003944,0.000398,0.0003966,0.0003936,0.0003972,0.0003654,0.0003636,0.0003658,0.0003634,0.0003642,0.0002542,0.000255,0.000254,0.0002556,0.0002556,0.0002362,0.0002348,0.0002354,0.0002346,0.000234,0.01327,0.013274,0.013236,0.01325,0.013256,0.012278,0.012318,0.012326,0.012276,0.012274
582,0.00708,0.007074,0.007342,0.007076,0.007082,0.006586,0.0065,0.006466,0.006572,0.006518,0.0004936,0.0004976,0.0004964,0.0004942,0.000497,0.0004518,0.0004524,0.0004536,0.000452,0.0004526,0.0002928,0.0002936,0.0002928,0.0002942,0.0002942,0.0002696,0.0002686,0.0002694,0.0002684,0.000268,0.013484,0.013484,0.01346,0.013462,0.01348,0.012504,0.012532,0.012542,0.0125,0.012498
584,0.008298,0.00829,0.008654,0.008294,0.0083,0.007768,0.007648,0.007606,0.007748,0.007674,0.0006844,0.0006874,0.0006862,0.0006826,0.0006872,0.0006194,0.0006194,0.0006216,0.0006198,0.00062,0.0003538,0.0003548,0.0003534,0.0003546,0.0003548,0.0003234,0.0003218,0.000322,0.0003214,0.000321,0.013494,0.013492,0.01348,0.013474,0.0135,0.01254,0.012548,0.01256,0.01253,0.012526
586,0.00939,0.00938,0.009816,0.009386,0.009392,0.008842,0.008692,0.008634,0.008824,0.008728,0.0010682,0.001073,0.0010704,0.0010712,0.001072,0.0009664,0.0009626,0.0009678,0.0009624,0.0009628,0.0004594,0.0004598,0.0004586,0.0004602,0.00046,0.0004162,0.000415,0.0004154,0.000415,0.0004148,0.013316,0.013314,0.01331,0.013296,0.013334,0.012392,0.012386,0.012396,0.012376,0.012376
588,0.010034,0.010024,0.010402,0.01003,0.010034,0.009466,0.00932,0.00926,0.009448,0.009354,0.0015092,0.001514,0.0015132,0.001514,0.0015114,0.0013744,0.0013692,0.001376,0.001369,0.001371,0.0005938,0.0005942,0.0005938,0.0005954,0.0005952,0.0005376,0.0005352,0.0005362,0.0005358,0.0005352,0.013084,0.01308,0.013084,0.01306,0.013102,0.012182,0.012172,0.012182,0.012168,0.012168
590,0.010214,0.0102,0.010332,0.010206,0.010204,0.00959,0.009508,0.009468,0.009574,0.009522,0.0019004,0.0019046,0.001905,0.0019062,0.0019034,0.001743,0.0017398,0.0017494,0.0017398,0.0017396,0.000762,0.0007636,0.0007622,0.000764,0.0007634,0.0006904,0.0006874,0.0006886,0.0006884,0.0006878,0.012774,0.012772,0.012774,0.012752,0.012792,0.011894,0.011882,0.011898,0.011884,0.011888
592,0.00975,0.009732,0.00954,0.00974,0.009732,0.009076,0.009102,0.009098,0.009064,0.009078,0.002146,0.00215,0.002148,0.00215,0.00215,0.0019814,0.001978,0.0019876,0.0019774,0.001978,0.0009682,0.0009698,0.0009684,0.0009704,0.0009696,0.000877,0.000874,0.0008756,0.0008752,0.0008756,0.012408,0.012406,0.012408,0.012388,0.012422,0.01155,0.01154,0.011554,0.011544,0.01155
594,0.008602,0.008584,0.008218,0.008592,0.00858,0.007962,0.008066,0.008092,0.00796,0.00802,0.002242,0.002244,0.002244,0.002242,0.002244,0.002076,0.002076,0.002082,0.002078,0.002078,0.0012114,0.0012132,0.0012118,0.0012138,0.0012124,0.001098,0.001096,0.001096,0.0010974,0.0010968,0.011994,0.011994,0.011998,0.011978,0.012012,0.01116,0.011156,0.01117,0.011164,0.011166
596,0.00679,0.006774,0.006454,0.00678,0.00677,0.006304,0.006408,0.006438,0.006306,0.006366,0.002218,0.00222,0.002222,0.002216,0.002218,0.002058,0.002058,0.002062,0.00206,0.002062,0.0015124,0.0015136,0.0015124,0.0015146,0.0015128,0.001372,0.0013706,0.0013698,0.0013724,0.0013716,0.011476,0.011476,0.011478,0.01146,0.011496,0.010672,0.010678,0.010688,0.010676,0.010682
598,0.005052,0.00504,0.00485,0.005044,0.005036,0.004724,0.004798,0.004814,0.004734,0.00477,0.002104,0.002108,0.002106,0.0021,0.002104,0.0019582,0.0019612,0.0019616,0.0019622,0.0019612,0.001814,0.0018162,0.0018144,0.0018166,0.0018146,0.0016474,0.0016458,0.0016458,0.001647,0.0016478,0.010978,0.010978,0.010978,0.010962,0.010994,0.010202,0.010208,0.010218,0.010204,0.010212
600,0.00357,0.00356,0.003476,0.003564,0.00356,0.003368,0.003406,0.003414,0.003374,0.003392,0.0018852,0.0018884,0.0018878,0.0018798,0.0018858,0.001766,0.001769,0.0017652,0.00177,0.0017672,0.002122,0.002124,0.002122,0.002124,0.002122,0.0019286,0.0019272,0.0019272,0.0019292,0.0019294,0.010484,0.010486,0.010486,0.010468,0.010498,0.009738,0.009744,0.009754,0.009738,0.00974
602,0.002372,0.002364,0.002334,0.002368,0.002366,0.002258,0.002278,0.00228,0.002264,0.00227,0.0015412,0.0015444,0.0015426,0.001535,0.0015424,0.001454,0.0014568,0.0014518,0.0014588,0.0014554,0.002426,0.002428,0.002426,0.002428,0.002426,0.002208,0.002208,0.002206,0.002208,0.002208,0.009992,0.009992,0.009992,0.009974,0.010002,0.009272,0.009278,0.009286,0.009272,0.009272
604,0.0014198,0.0014152,0.0014036,0.0014168,0.0014166,0.0013652,0.0013764,0.0013792,0.0013716,0.0013738,0.0011718,0.001175,0.0011746,0.0011672,0.001173,0.0011066,0.0011084,0.0011058,0.001112,0.0011092,0.002718,0.00272,0.002718,0.002718,0.002718,0.002478,0.002476,0.002476,0.002478,0.002478,0.009486,0.00949,0.009486,0.009474,0.009498,0.008802,0.008806,0.008808,0.008798,0.0088
606,0.0007118,0.000708,0.0007056,0.0007088,0.000709,0.0006878,0.000693,0.0006912,0.0006924,0.000691,0.0010582,0.001062,0.0010626,0.0010566,0.0010602,0.00097,0.0009696,0.00097,0.0009724,0.0009686,0.002986,0.002988,0.002986,0.002986,0.002986,0.002728,0.002728,0.002724,0.00273,0.00273,0.00887,0.008878,0.008872,0.008856,0.00888,0.008228,0.008234,0.00824,0.008226,0.00823
608,0.000404,0.0004018,0.0004054,0.0004032,0.0004046,0.0003828,0.0003874,0.0003844,0.000386,0.0003866,0.001504,0.0015076,0.0015076,0.0015084,0.001505,0.0013416,0.0013384,0.0013462,0.001341,0.0013374,0.003134,0.003136,0.003134,0.003136,0.003134,0.002876,0.002874,0.002872,0.002876,0.002876,0.008122,0.008128,0.008126,0.008112,0.008132,0.00755,0.007556,0.00756,0.007548,0.007554
610,0.0003208,0.0003184,0.0003238,0.0003182,0.0003208,0.000296,0.0002988,0.0002966,0.0002986,0.000299,0.002386,0.00239,0.002392,0.002406,0.002386,0.002126,0.00212,0.002148,0.002126,0.002122,0.00315,0.00315,0.003148,0.00315,0.00315,0.002902,0.002898,0.002896,0.0029,0.002902,0.00721,0.007216,0.007212,0.0072,0.007216,0.006718,0.006722,0.006726,0.006718,0.006726
612,0.0003058,0.0003034,0.000309,0.0003064,0.0003076,0.000281,0.0002834,0.0002818,0.0002818,0.000284,0.003502,0.003504,0.003508,0.003552,0.003502,0.003144,0.00313,0.00319,0.003138,0.003134,0.003016,0.003016,0.003016,0.003016,0.003016,0.002792,0.00279,0.00279,0.002792,0.002794,0.006168,0.006176,0.006174,0.006162,0.00618,0.005766,0.00577,0.005774,0.005768,0.005774
614,0.000316,0.0003142,0.0003216,0.0003152,0.0003186,0.0002872,0.0002924,0.00029,0.0002914,0.000293,0.004696,0.004698,0.004702,0.004792,0.004698,0.004242,0.004224,0.00433,0.00423,0.00423,0.002732,0.002732,0.002732,0.002732,0.002732,0.002546,0.002542,0.002544,0.002546,0.002548,0.00509,0.0051,0.005098,0.005084,0.005098,0.004772,0.004776,0.00478,0.004778,0.004784
616,0.0003452,0.0003408,0.0003488,0.000342,0.0003474,0.0003104,0.000315,0.0003126,0.000314,0.0003154,0.005978,0.005976,0.005982,0.006132,0.005976,0.005426,0.005398,0.00557,0.005404,0.005406,0.002272,0.002272,0.002272,0.00227,0.002272,0.002134,0.002132,0.002134,0.002136,0.002138,0.003928,0.003938,0.003934,0.003928,0.003932,0.003698,0.003706,0.003708,0.003708,0.00371
618,0.0003856,0.0003844,0.0003894,0.0003864,0.0003888,0.0003476,0.0003542,0.0003498,0.0003518,0.0003556,0.007134,0.007134,0.007136,0.007356,0.007136,0.006502,0.006468,0.006702,0.006472,0.006474,0.0017448,0.0017446,0.001745,0.0017438,0.0017452,0.0016544,0.0016542,0.0016566,0.0016562,0.001659,0.00287,0.002878,0.002874,0.00287,0.002876,0.00272,0.002724,0.002726,0.002724,0.002726
620,0.0004472,0.0004448,0.0004528,0.000446,0.0004494,0.000404,0.0004074,0.0004042,0.0004064,0.0004086,0.008112,0.008112,0.008114,0.008398,0.008114,0.007422,0.007378,0.007672,0.007378,0.007384,0.0012338,0.0012324,0.0012332,0.0012316,0.0012334,0.001181,0.0011824,0.0011834,0.0011836,0.0011854,0.0019646,0.0019734,0.0019736,0.0019668,0.0019702,0.0018792,0.001881,0.001882,0.001883,0.0018824
622,0.0005306,0.0005282,0.000536,0.0005306,0.0005334,0.0004826,0.0004826,0.0004786,0.0004812,0.0004836,0.008914,0.008912,0.008914,0.009236,0.008914,0.008188,0.008134,0.008462,0.008132,0.008142,0.0008148,0.0008136,0.0008142,0.0008128,0.0008134,0.0007818,0.0007828,0.0007834,0.0007836,0.0007838,0.001251,0.0012592,0.0012594,0.0012518,0.0012548,0.0012024,0.001202,0.0012052,0.0012058,0.0012052
624,0.0006366,0.0006352,0.0006404,0.0006396,0.0006408,0.000577,0.0005802,0.0005744,0.0005782,0.0005782,0.00946,0.009458,0.009462,0.009732,0.00946,0.008716,0.008662,0.008944,0.008658,0.008668,0.0006374,0.000637,0.0006374,0.0006356,0.0006358,0.0005926,0.0005922,0.0005936,0.0005932,0.0005936,0.000891,0.0008994,0.0009004,0.0008986,0.0008964,0.0008398,0.0008368,0.000842,0.0008404,0.000842
626,0.0007804,0.0007782,0.0007854,0.0007834,0.0007858,0.0007082,0.0007092,0.0007058,0.0007082,0.0007098,0.009732,0.009724,0.009732,0.009836,0.009728,0.008972,0.008938,0.00906,0.008934,0.008938,0.000808,0.0008094,0.0008086,0.000807,0.0008068,0.0007232,0.0007218,0.0007234,0.0007226,0.0007238,0.0010032,0.001004,0.0010068,0.0010046,0.0010068,0.000911,0.000905,0.0009118,0.000906,0.0009076
628,0.000945,0.0009424,0.00095,0.0009482,0.000951,0.0008628,0.0008596,0.0008584,0.0008618,0.0008616,0.009698,0.009682,0.009698,0.009628,0.00969,0.008934,0.008928,0.008878,0.008924,0.008924,0.0012184,0.0012208,0.0012204,0.0012188,0.0012176,0.0010874,0.0010856,0.0010872,0.0010864,0.001088,0.0014296,0.0014334,0.001437,0.0014348,0.001436,0.001289,0.0012884,0.001293,0.0012836,0.0012864
630,0.0011194,0.001118,0.0011254,0.001123,0.001125,0.0010242,0.0010214,0.0010184,0.0010212,0.0010202,0.009458,0.00944,0.00946,0.00929,0.009448,0.008712,0.008726,0.008572,0.008724,0.008718,0.0017008,0.0017028,0.0017024,0.0017012,0.001701,0.0015266,0.0015234,0.0015252,0.001525,0.0015264,0.0019558,0.0019594,0.0019596,0.0019598,0.0019566,0.001767,0.001764,0.0017712,0.0017626,0.0017668
632,0.0013052,0.0013022,0.0013104,0.001308,0.0013114,0.0011934,0.0011896,0.0011872,0.0011916,0.0011898,0.00908,0.00906,0.009082,0.008882,0.00907,0.008366,0.008392,0.0082,0.00839,0.008384,0.002204,0.002206,0.002206,0.002206,0.002204,0.0019888,0.0019856,0.001987,0.0019876,0.0019888,0.00251,0.002516,0.002512,0.002512,0.002514,0.002274,0.002276,0.002282,0.002272,0.002274
634,0.0014948,0.0014916,0.0015008,0.0014996,0.0015,0.0013688,0.0013638,0.001362,0.0013702,0.0013652,0.008628,0.008608,0.00863,0.008442,0.00862,0.007954,0.007982,0.007798,0.007984,0.007978,0.002708,0.002712,0.00271,0.00271,0.00271,0.002452,0.00245,0.002452,0.002452,0.002452,0.00307,0.00307,0.00307,0.00307,0.003074,0.00279,0.002792,0.002794,0.002786,0.002788
636,0.0016968,0.001696,0.0017056,0.0016998,0.0017038,0.0015562,0.0015542,0.0015526,0.0015608,0.0015534,0.008102,0.00808,0.0081,0.007952,0.008092,0.007476,0.0075,0.007356,0.007502,0.0075,0.00324,0.003244,0.003244,0.003242,0.003242,0.002946,0.002944,0.002944,0.002946,0.002946,0.003656,0.003658,0.003654,0.003656,0.00366,0.003332,0.003334,0.00334,0.003326,0.003334
638,0.0018788,0.0018758,0.001885,0.0018794,0.0018856,0.001724,0.0017202,0.0017212,0.0017284,0.0017212,0.007624,0.007606,0.007626,0.00751,0.007618,0.007044,0.007066,0.00695,0.007064,0.007066,0.00369,0.003694,0.003694,0.003692,0.003694,0.003366,0.003366,0.003364,0.003366,0.003368,0.004134,0.004136,0.00413,0.004132,0.004138,0.003778,0.003778,0.003786,0.003776,0.003776
640,0.002048,0.002044,0.00205,0.002052,0.002054,0.0018846,0.0018786,0.0018794,0.0018852,0.0018792,0.007212,0.007196,0.007212,0.007128,0.007208,0.006668,0.006686,0.0066,0.006686,0.006686,0.00404,0.004044,0.004044,0.004042,0.004044,0.003698,0.003698,0.003698,0.0037,0.003702,0.004448,0.004452,0.004448,0.004448,0.004452,0.00409,0.004092,0.004096,0.004086,0.004086
642,0.002204,0.0022,0.002208,0.00221,0.00221,0.002028,0.002026,0.002026,0.002032,0.002026,0.00684,0.006826,0.00684,0.006774,0.006836,0.006328,0.006344,0.006276,0.00634,0.00634,0.00426,0.004264,0.004264,0.004262,0.004266,0.003916,0.003916,0.003914,0.003916,0.003918,0.004564,0.004568,0.00456,0.004562,0.004566,0.00421,0.00421,0.004214,0.004206,0.004206
644,0.002354,0.002352,0.002354,0.002358,0.002358,0.00217,0.002164,0.002168,0.002172,0.002162,0.00651,0.006496,0.00651,0.006462,0.006506,0.006028,0.006042,0.005984,0.006034,0.006036,0.004346,0.004352,0.004352,0.00435,0.004354,0.004014,0.004012,0.00401,0.004012,0.004012,0.004506,0.004512,0.004502,0.004506,0.004508,0.004168,0.004172,0.004174,0.004164,0.004166
646,0.002518,0.002514,0.002518,0.00252,0.00252,0.002324,0.002318,0.002318,0.002324,0.002314,0.006174,0.006162,0.006176,0.006142,0.006172,0.005724,0.005734,0.005692,0.005726,0.005726,0.004272,0.004274,0.004276,0.004272,0.00428,0.003964,0.003958,0.003958,0.003958,0.003958,0.00431,0.004312,0.004308,0.004308,0.004312,0.003996,0.004,0.004002,0.003992,0.003994
648,0.002648,0.002644,0.00265,0.002652,0.002648,0.00245,0.00244,0.002444,0.002446,0.002438,0.00591,0.0059,0.005912,0.005884,0.005908,0.005484,0.00549,0.005456,0.005478,0.005482,0.004046,0.00405,0.004052,0.004048,0.004056,0.003774,0.003768,0.003768,0.003766,0.003768,0.00401,0.004016,0.004008,0.004008,0.004008,0.003732,0.00373,0.003732,0.003728,0.00373
650,0.002756,0.002752,0.002752,0.00276,0.002756,0.002548,0.002536,0.00254,0.002546,0.002534,0.005648,0.005638,0.00565,0.005624,0.005646,0.005244,0.00525,0.005214,0.005236,0.005238,0.003662,0.003664,0.003668,0.003662,0.00367,0.003438,0.00343,0.00343,0.003428,0.003428,0.00358,0.003588,0.003582,0.003578,0.003584,0.003342,0.00334,0.003344,0.003338,0.00334
652,0.002826,0.00282,0.002818,0.002826,0.002826,0.002612,0.002604,0.002606,0.002612,0.002602,0.005354,0.00535,0.00536,0.005334,0.005354,0.004974,0.004978,0.004946,0.004966,0.00497,0.00313,0.00313,0.003134,0.00313,0.003138,0.002958,0.00295,0.00295,0.002948,0.00295,0.003052,0.003054,0.003048,0.003048,0.00305,0.002858,0.002856,0.002862,0.002854,0.002856
654,0.002872,0.002866,0.002862,0.00287,0.002868,0.002654,0.002652,0.002648,0.00265,0.002648,0.005056,0.005052,0.005062,0.00504,0.005056,0.004696,0.0047,0.004672,0.00469,0.004696,0.00252,0.00252,0.002522,0.002518,0.002528,0.002396,0.002388,0.00239,0.002388,0.00239,0.002478,0.002482,0.002472,0.002476,0.002478,0.002324,0.00233,0.00233,0.002326,0.002334
656,0.002916,0.002908,0.002906,0.00291,0.00291,0.0027,0.00269,0.002692,0.002698,0.002688,0.004766,0.004762,0.004772,0.004752,0.004766,0.004428,0.004432,0.004408,0.004422,0.004428,0.0018538,0.0018524,0.0018566,0.001852,0.0018584,0.0017746,0.0017714,0.0017698,0.0017704,0.0017718,0.0018596,0.0018642,0.0018556,0.0018578,0.0018588,0.001757,0.0017564,0.0017574,0.0017524,0.0017614
658,0.00295,0.002946,0.002944,0.002946,0.002944,0.002732,0.002724,0.002726,0.002732,0.002724,0.004554,0.004548,0.004556,0.004544,0.004552,0.004226,0.004232,0.004216,0.004224,0.004232,0.0013202,0.0013192,0.001322,0.001319,0.0013246,0.0012736,0.0012708,0.0012698,0.0012696,0.001271,0.00136,0.0013616,0.0013518,0.0013558,0.001355,0.001292,0.0012916,0.001288,0.0012858,0.0012952
660,0.002976,0.002968,0.002966,0.00297,0.00297,0.002756,0.00275,0.002752,0.002756,0.00275,0.004364,0.00436,0.004368,0.00436,0.004364,0.004052,0.00406,0.004046,0.004052,0.00406,0.0008576,0.000857,0.000859,0.0008574,0.0008608,0.0008358,0.000836,0.0008332,0.0008338,0.0008344,0.0009136,0.0009162,0.0008986,0.0009046,0.0009096,0.0008724,0.000874,0.0008684,0.0008702,0.0008724
662,0.002976,0.002968,0.002962,0.002966,0.002962,0.002754,0.002752,0.00275,0.002758,0.002752,0.004174,0.004172,0.00418,0.004166,0.004174,0.00388,0.00389,0.003876,0.003882,0.003884,0.000485,0.000485,0.0004868,0.0004856,0.0004882,0.0004804,0.0004806,0.0004786,0.000479,0.0004802,0.000545,0.0005456,0.000532,0.0005358,0.0005368,0.0005206,0.000522,0.000519,0.0005264,0.000519
664,0.002896,0.002894,0.002888,0.002892,0.002886,0.002688,0.00269,0.00269,0.002696,0.002688,0.003918,0.003918,0.003926,0.003912,0.003922,0.003652,0.003662,0.00365,0.003654,0.003658,0.0002452,0.0002432,0.0002454,0.0002444,0.000246,0.0002432,0.0002422,0.0002414,0.0002416,0.0002406,0.0003018,0.0003012,0.0002878,0.000294,0.0002928,0.0002854,0.0002878,0.0002834,0.000287,0.0002844
666,0.002692,0.002692,0.002678,0.002688,0.00268,0.002508,0.002514,0.002514,0.002512,0.002506,0.003548,0.003546,0.00355,0.003544,0.003552,0.003318,0.00333,0.003308,0.003316,0.00332,0.00014918,0.00014834,0.00014856,0.00014976,0.00014998,0.00014412,0.00014116,0.00014062,0.00014284,0.00014196,0.000205,0.0002022,0.00018822,0.00019352,0.00019698,0.00018714,0.00019394,0.00019066,0.00018994,0.00018698
668,0.002412,0.002406,0.002402,0.002406,0.002396,0.002254,0.002254,0.00226,0.002256,0.002248,0.003114,0.00311,0.003118,0.003106,0.003116,0.002918,0.00293,0.002914,0.002918,0.00292,0.00012556,0.00012442,0.00012352,0.00012578,0.00012506,0.0001176,0.00011664,0.00011522,0.00011794,0.00011654,0.0001767,0.00017682,0.0001641,0.00016674,0.00016848,0.0001577,0.0001647,0.00016472,0.00016684,0.00016204
670,0.002078,0.002074,0.002064,0.00207,0.002064,0.0019482,0.0019476,0.0019506,0.0019468,0.001944,0.002636,0.002634,0.00264,0.002628,0.002638,0.00248,0.002488,0.002476,0.002482,0.002482,0.00011816,0.0001157,0.00011636,0.00011764,0.00011642,0.00010998,0.00010924,0.00010616,0.00011068,0.00010864,0.00016746,0.00016664,0.00015164,0.00015866,0.00015724,0.00015326,0.0001526,0.0001514,0.00015682,0.00014844
672,0.001713,0.0017078,0.0016994,0.0017066,0.0016986,0.0016112,0.0016118,0.0016118,0.0016092,0.001607,0.002138,0.00214,0.002148,0.002134,0.002146,0.002026,0.002036,0.002016,0.002024,0.002024,0.00011334,0.000114,0.00011248,0.0001146,0.00011392,0.0001076,0.0001058,0.00010224,0.00010658,0.00010482,0.0001654,0.00015926,0.0001473,0.00015154,0.0001544,0.00014416,0.00014162,0.00014674,0.00014582,0.00014418
674,0.001288,0.001285,0.0012836,0.0012838,0.0012798,0.0012192,0.0012186,0.0012258,0.0012232,0.0012182,0.001596,0.0015934,0.001601,0.0015866,0.0016004,0.001515,0.001524,0.0015112,0.001519,0.001517,0.000111,0.0001109,0.00010808,0.0001105,0.0001107,0.00010286,0.00010274,9.876e-05,0.0001028,0.00010126,0.000154,0.0001536,0.00013708,0.00014354,0.00014782,0.0001358,0.0001368,0.0001398,0.00014472,0.00013646
676,0.0009124,0.0009112,0.0009062,0.0009092,0.0009016,0.0008684,0.0008692,0.0008706,0.0008688,0.0008674,0.0011204,0.0011208,0.001125,0.0011166,0.001125,0.0010732,0.0010792,0.0010724,0.0010752,0.001077,0.00010812,0.00010712,0.00010392,0.00010776,0.00010706,0.0001003,9.994e-05,9.726e-05,0.00010136,9.93e-05,0.00014952,0.0001462,0.00013156,0.00013964,0.00014146,0.00013456,0.00013214,0.00013544,0.00013886,0.00013286
678,0.000584,0.00058,0.00058,0.0005806,0.0005722,0.0005564,0.0005606,0.0005586,0.000557,0.0005582,0.0007146,0.0007152,0.0007204,0.0007102,0.0007178,0.00069,0.000696,0.000685,0.0006912,0.0006936,0.00010408,0.00010352,0.00010074,0.00010794,0.0001031,9.664e-05,9.68e-05,9.304e-05,9.794e-05,9.66e-05,0.00014644,0.00014082,0.00012826,0.0001369,0.00013486,0.00013084,0.0001302,0.0001267,0.00013658,0.00012596
680,0.0003384,0.000334,0.0003374,0.0003362,0.0003266,0.0003176,0.000322,0.000324,0.0003228,0.0003254,0.0004086,0.000413,0.0004166,0.0004074,0.0004156,0.0004002,0.0004058,0.0003976,0.0004002,0.0004014,0.00010182,0.00010276,9.89e-05,0.00010536,0.00010124,9.208e-05,9.528e-05,9.212e-05,9.566e-05,9.566e-05,0.00014124,0.00014182,0.00012544,0.00012934,0.0001345,0.00012812,0.00012688,0.00012816,0.00013292,0.00012548
682,0.0002064,0.0002038,0.0002022,0.0002036,0.00019598,0.00018852,0.00019052,0.00019392,0.00018954,0.000192,0.0002458,0.0002484,0.0002512,0.0002462,0.000252,0.0002392,0.0002408,0.0002386,0.0002382,0.0002378,0.00010188,0.00010108,9.73e-05,0.00010244,9.902e-05,9.216e-05,9.394e-05,9.156e-05,9.644e-05,9.458e-05,0.00013876,0.00013282,0.000123,0.00013386,0.00013236,0.00012438,0.000126,0.00013184,0.00013296,0.00012266
684,0.00015888,0.00015532,0.00015482,0.00015472,0.00015042,0.00014476,0.00014338,0.00014072,0.0001409,0.00014866,0.00019074,0.00018804,0.00019542,0.000192,0.00019222,0.00018148,0.00017974,0.00017976,0.00018058,0.00018248,0.00010046,9.926e-05,9.632e-05,0.00010362,9.966e-05,9.16e-05,9.156e-05,8.918e-05,9.576e-05,9.194e-05,0.00013186,0.00013386,0.00013246,0.00013048,0.00012922,0.00012458,0.00012282,0.0001292,0.0001338,0.0001229
686,0.00015072,0.0001465,0.00014274,0.00014668,0.00014282,0.00013416,0.00013502,0.00013192,0.00012866,0.00013548,0.0001717,0.000176,0.00017658,0.00017146,0.0001727,0.00016406,0.00016342,0.00015706,0.00016404,0.0001634,9.894e-05,9.812e-05,9.408e-05,0.00010032,9.642e-05,9.006e-05,9.026e-05,8.686e-05,9.372e-05,9.062e-05,0.00013392,0.00013424,0.00013136,0.00012952,0.00013362,0.0001235,0.00011822,0.0001228,0.00013294,0.00012022
688,0.00014258,0.0001422,0.00013568,0.00014052,0.00013256,0.0001287,0.00012562,0.00012386,0.0001221,0.00012876,0.00015874,0.00016414,0.0001716,0.00016526,0.00016618,0.00015546,0.00015392,0.00015138,0.0001529,0.00015802,9.54e-05,9.586e-05,9.128e-05,9.864e-05,9.292e-05,8.71e-05,8.862e-05,8.546e-05,9.04e-05,8.678e-05,0.00013262,0.00012968,0.0001325,0.00012418,0.00013232,0.00011992,0.00012322,0.0001249,0.00012846,0.00012164
690,0.0001339,0.0001347,0.00013282,0.00013514,0.00012642,0.00012354,0.00011942,0.00012294,0.00011968,0.0001264,0.00015256,0.00015366,0.0001603,0.00015566,0.0001543,0.00014714,0.00014164,0.00014908,0.00014712,0.00015062,9.21e-05,9.172e-05,8.84e-05,9.62e-05,8.956e-05,8.488e-05,8.65e-05,8.462e-05,8.818e-05,8.47e-05,0.00012984,0.00012484,0.00013484,0.00012022,0.00012884,0.00012266,0.00011942,0.00012114,0.00012816,0.00012302
692,0.00013094,0.0001259,0.00012392,0.00012798,0.0001209,0.00011502,0.00011836,0.00011982,0.00011832,0.00012016,0.00014444,0.00014562,0.00015012,0.00014518,0.00014932,0.00013988,0.00013516,0.00014008,0.00014308,0.0001402,8.812e-05,8.804e-05,8.434e-05,9.166e-05,8.762e-05,7.936e-05,8.146e-05,7.848e-05,8.346e-05,8.156e-05,0.0001273,0.00011696,0.00013326,0.00012624,0.00012438,0.0001237,0.0001213,0.00012734,0.0001215,0.00012592
694,0.00012576,0.00012512,0.00011832,0.00012102,0.00011714,0.00011164,0.00010968,0.00011298,0.00011166,0.00011118,0.00013734,0.00013832,0.00014204,0.00013578,0.00013742,0.00013106,0.00012706,0.00012662,0.00013008,0.00013452,8.482e-05,8.462e-05,8.028e-05,8.804e-05,8.432e-05,7.636e-05,7.994e-05,7.674e-05,8.09e-05,7.832e-05,0.00012242,0.000117,0.00012526,0.00011934,0.00011616,0.0001217,0.00010926,0.00012586,0.000117,0.00011554
696,0.00012188,0.00011778,0.00011286,0.00011614,0.00011122,0.0001053,0.00010554,0.00010538,0.00010738,0.00010574,0.0001315,0.00013102,0.0001323,0.00012874,0.00013388,0.00012316,0.00012262,0.00012126,0.0001242,0.00012578,8.256e-05,8.048e-05,7.762e-05,8.374e-05,8.092e-05,7.46e-05,7.554e-05,7.368e-05,7.708e-05,7.578e-05,0.00011964,0.00010842,0.0001234,0.0001173,0.00011762,0.0001141,0.00010974,0.00011818,0.00011568,0.00011194
698,0.00011544,0.0001124,0.00010212,0.000111,0.00010896,9.86e-05,9.672e-05,0.00010008,0.00010362,0.0001013,0.0001244,0.00012952,0.00012534,0.00012426,0.00012792,0.00011618,0.00011678,0.00011224,0.00012048,0.00012038,7.87e-05,7.786e-05,7.414e-05,7.998e-05,7.714e-05,7.04e-05,7.274e-05,7.138e-05,7.43e-05,7.172e-05,0.00011664,0.00011,0.00012076,0.00011424,0.00012004,0.0001084,0.00010378,0.0001132,0.00011432,0.00011106
700,0.00010486,0.00010214,0.00010326,0.00010612,9.93e-05,9.432e-05,9.218e-05,9.42e-05,0.00010222,9.45e-05,0.00011676,0.0001155,0.00011874,0.00012122,0.00011706,0.00011062,0.00010696,0.0001118,0.0001116,0.00010932,7.434e-05,7.448e-05,7.146e-05,7.704e-05,7.344e-05,6.656e-05,6.862e-05,6.698e-05,7.13e-05,6.88e-05,0.00011134,0.00010418,0.00013086,0.00012124,0.000125,9.476e-05,0.00010428,0.00010984,0.00011274,0.00010886
702,0.000104,9.98e-05,0.00010024,9.742e-05,9.554e-05,9.488e-05,9.642e-05,8.816e-05,9.164e-05,9.63e-05,0.00011232,0.00011072,0.00011124,0.00011146,0.00011266,0.00011278,9.886e-05,0.00010236,0.000108,0.00010226,7.184e-05,7.06e-05,6.846e-05,7.422e-05,6.984e-05,6.326e-05,6.478e-05,6.334e-05,6.502e-05,6.642e-05,0.00010874,8.942e-05,0.00012134,0.00011616,0.00011688,0.00010202,0.0001007,0.00010338,0.00011336,0.00011336
704,9.754e-05,9.694e-05,9.276e-05,9.578e-05,9.564e-05,8.938e-05,9.178e-05,8.898e-05,9.048e-05,8.832e-05,0.0001081,0.00010018,0.00010562,0.00010948,0.00010712,0.00010336,9.582e-05,9.478e-05,0.00010228,0.00010262,6.728e-05,6.706e-05,6.428e-05,6.952e-05,6.632e-05,6.054e-05,6.116e-05,6.242e-05,6.142e-05,6.114e-05,0.00010128,8.744e-05,0.00011924,0.00011286,0.00010986,9.292e-05,9.278e-05,0.0001059,0.0001112,0.0001117
706,9.114e-05,8.44e-05,8.638e-05,8.764e-05,9.14e-05,8.582e-05,8.45e-05,8.128e-05,8.932e-05,8.178e-05,0.00010538,9.638e-05,9.726e-05,0.0001044,0.00010306,0.00010274,8.988e-05,9.18e-05,9.496e-05,9.6e-05,6.31e-05,6.358e-05,6.308e-05,6.448e-05,6.282e-05,5.57e-05,5.72e-05,6.024e-05,5.97e-05,5.858e-05,9.53e-05,8.82e-05,0.00011538,0.00011114,0.00011352,9.244e-05,9.074e-05,9.752e-05,9.96e-05,0.00010448
708,8.094e-05,8.986e-05,8.318e-05,8.524e-05,8.61e-05,8.04e-05,8.008e-05,8.568e-05,8.804e-05,7.82e-05,0.0001041,9.448e-05,9.738e-05,9.59e-05,0.00010044,9.812e-05,9.05e-05,9.006e-05,9.114e-05,9.646e-05,6.094e-05,6.204e-05,5.896e-05,6.216e-05,5.928e-05,5.178e-05,5.322e-05,5.73e-05,5.272e-05,5.67e-05,9.718e-05,8.1e-05,0.00010944,0.00010662,0.00010974,9.042e-05,9.204e-05,8.438e-05,0.00010402,0.00010176
710,8.272e-05,8.09e-05,7.892e-05,8.464e-05,8.706e-05,8.352e-05,7.534e-05,7.682e-05,8.356e-05,8.04e-05,0.00010246,9.152e-05,9.188e-05,9.072e-05,9.89e-05,9.502e-05,8.694e-05,9.296e-05,8.952e-05,9.332e-05,5.474e-05,5.58e-05,5.548e-05,5.782e-05,5.646e-05,5.17e-05,5.028e-05,5.492e-05,5.196e-05,5.114e-05,0.0001037,7.85e-05,0.00011256,0.00010468,0.00010302,9.24e-05,8.618e-05,9.354e-05,0.0001018,0.0001007
712,7.406e-05,7.85e-05,7.646e-05,7.514e-05,7.994e-05,7.776e-05,7.87e-05,7.522e-05,8.058e-05,7.258e-05,9.304e-05,9.044e-05,8.844e-05,9.216e-05,9.594e-05,9.292e-05,8.688e-05,8.784e-05,8.844e-05,8.42e-05,5.388e-05,5.05e-05,5.598e-05,5.492e-05,5.372e-05,4.766e-05,4.676e-05,5.302e-05,4.834e-05,4.966e-05,9.094e-05,7.164e-05,0.00010834,0.00010532,0.00010322,8.556e-05,8.14e-05,9.238e-05,9.272e-05,0.00010116
714,6.918e-05,7.246e-05,7.744e-05,7.238e-05,8.342e-05,7.508e-05,7.78e-05,7.298e-05,7.62e-05,7.028e-05,9.884e-05,8.666e-05,8.524e-05,9.134e-05,9.368e-05,9.092e-05,8.148e-05,7.962e-05,8.414e-05,8.35e-05,5.116e-05,4.988e-05,5.336e-05,5.148e-05,4.974e-05,4.75e-05,4.67e-05,4.856e-05,4.49e-05,4.884e-05,8.47e-05,7.106e-05,9.672e-05,0.00010316,0.000104,7.436e-05,8.144e-05,8.274e-05,8.72e-05,0.00010178
716,6.444e-05,7.22e-05,6.746e-05,6.466e-05,7.598e-05,7.208e-05,7.236e-05,7.768e-05,7.19e-05,6.746e-05,9.356e-05,8.476e-05,8.156e-05,9.392e-05,8.824e-05,9.254e-05,8.358e-05,8.132e-05,8.21e-05,8.254e-05,5.092e-05,4.806e-05,5.048e-05,4.838e-05,4.84e-05,4.462e-05,4.34e-05,4.652e-05,4.264e-05,4.382e-05,8.67e-05,7.378e-05,9.622e-05,9.888e-05,9.944e-05,7.512e-05,8.17e-05,7.764e-05,8.696e-05,9.366e-05
718,5.892e-05,6.448e-05,5.926e-05,6.41e-05,6.454e-05,6.524e-05,7.19e-05,6.814e-05,7.23e-05,5.678e-05,9.282e-05,8.592e-05,7.078e-05,8.4e-05,8.198e-05,8.88e-05,8.334e-05,7.904e-05,7.626e-05,7.376e-05,4.596e-05,4.378e-05,4.88e-05,4.48e-05,4.562e-05,4.134e-05,4.398e-05,4.498e-05,4.13e-05,4.13e-05,8.772e-05,6.762e-05,9.502e-05,9.864e-05,9.002e-05,7.698e-05,7.834e-05,7.352e-05,8.426e-05,9.152e-05
720,5.822e-05,6.066e-05,5.036e-05,5.754e-05,6.84e-05,5.312e-05,6.15e-05,6.424e-05,6.96e-05,4.984e-05,9.08e-05,8.028e-05,7.48e-05,8.44e-05,8.302e-05,9.076e-05,7.498e-05,7.708e-05,7.22e-05,7.556e-05,4.444e-05,4.138e-05,4.678e-05,4.182e-05,4.412e-05,3.99e-05,4.08e-05,4.272e-05,3.822e-05,4.108e-05,8.55e-05,5.886e-05,9.18e-05,9.622e-05,9.324e-05,6.56e-05,7.368e-05,6.794e-05,8.098e-05,9.23e-05
722,4.838e-05,5.27e-05,4.704e-05,5.308e-05,6.22e-05,5.108e-05,5.482e-05,6.252e-05,6.008e-05,4.67e-05,8.936e-05,7.532e-05,7.024e-05,8.244e-05,8.456e-05,8.37e-05,7.582e-05,6.934e-05,7.288e-05,6.984e-05,4.426e-05,3.988e-05,4.714e-05,4.04e-05,4.218e-05,3.994e-05,3.762e-05,4.058e-05,3.694e-05,3.796e-05,7.864e-05,7.03e-05,8.05e-05,8.822e-05,8.508e-05,7.166e-05,7.776e-05,6.212e-05,8.294e-05,8.874e-05
724,3.892e-05,4.456e-05,3.996e-05,5.062e-05,6.306e-05,4.518e-05,4.916e-05,5.676e-05,5.364e-05,4.044e-05,8.04e-05,7.136e-05,6.312e-05,8.326e-05,7.694e-05,8.474e-05,7.04e-05,7.06e-05,6.842e-05,6.076e-05,4.338e-05,3.73e-05,4.682e-05,3.786e-05,3.934e-05,3.868e-05,3.734e-05,4.062e-05,3.562e-05,3.638e-05,7.998e-05,7.156e-05,7.604e-05,8.094e-05,8.424e-05,7.166e-05,7.79e-05,6.144e-05,7.642e-05,8.138e-05
726,3.234e-05,4.198e-05,4.356e-05,3.898e-05,5.724e-05,4.542e-05,5.408e-05,5.554e-05,4.316e-05,4.186e-05,7.978e-05,6.972e-05,6.1e-05,8.01e-05,7.372e-05,8.066e-05,6.352e-05,7.096e-05,6.546e-05,6.072e-05,4.184e-05,3.404e-05,4.694e-05,3.598e-05,4.16e-05,4.03e-05,3.558e-05,3.766e-05,3.466e-05,3.904e-05,8.46e-05,7.046e-05,7.486e-05,7.642e-05,8.266e-05,7.336e-05,7.704e-05,5.916e-05,7.45e-05,8.528e-05
728,3.136e-05,3.726e-05,2.64e-05,3.354e-05,4.916e-05,3.43e-05,4.45e-05,5.114e-05,4.92e-05,3.564e-05,7.3e-05,6.804e-05,5.796e-05,6.976e-05,6.512e-05,7.708e-05,6.368e-05,6.526e-05,5.994e-05,5.516e-05,3.92e-05,3.7e-05,4.626e-05,3.458e-05,4.038e-05,3.878e-05,3.606e-05,3.842e-05,3.368e-05,3.544e-05,7.15e-05,6.956e-05,7.288e-05,7.922e-05,6.448e-05,6.832e-05,7.234e-05,5.686e-05,7.936e-05,7.498e-05
730,3.236e-05,2.94e-05,3.25e-05,3.506e-05,5.012e-05,3.77e-05,4.692e-05,4.936e-05,4.836e-05,3.254e-05,7.16e-05,6.9e-05,5.94e-05,7.202e-05,6.376e-05,8.142e-05,6.114e-05,6.732e-05,6.254e-05,5.04e-05,4.146e-05,3.574e-05,4.582e-05,3.498e-05,4.064e-05,3.81e-05,3.706e-05,3.848e-05,3.326e-05,3.602e-05,7.456e-05,7.644e-05,6.914e-05,7.79e-05,6.964e-05,6.692e-05,7.614e-05,5.312e-05,6.726e-05,7.4e-05
732,2.516e-05,2.952e-05,2.998e-05,3.618e-05,4.592e-05,3.808e-05,4.526e-05,4.866e-05,3.426e-05,3.522e-05,6.694e-05,6.488e-05,6.134e-05,7.02e-05,5.944e-05,7.486e-05,6.194e-05,6.628e-05,5.922e-05,5.024e-05,4.172e-05,3.128e-05,4.622e-05,3.398e-05,4.114e-05,3.91e-05,3.698e-05,3.692e-05,3.304e-05,3.512e-05,7.236e-05,8.478e-05,6.904e-05,7.228e-05,7.768e-05,6.262e-05,8.302e-05,4.94e-05,6.402e-05,7.642e-05
734,1.6776e-05,2.83e-05,2.938e-05,3.132e-05,4.518e-05,3.038e-05,3.808e-05,4.276e-05,3.412e-05,3.32e-05,6.056e-05,6.478e-05,5.87e-05,6.844e-05,6.242e-05,7.144e-05,6e-05,6.85e-05,5.76e-05,5.278e-05,4.098e-05,3.21e-05,4.656e-05,3.22e-05,4.056e-05,3.808e-05,3.608e-05,3.778e-05,3.206e-05,3.582e-05,7.072e-05,8.52e-05,7.32e-05,7.316e-05,6.694e-05,6.406e-05,8.586e-05,4.566e-05,6.34e-05,7.528e-05
736,8.21e-06,2.818e-05,2.968e-05,3.282e-05,3.126e-05,2.322e-05,2.966e-05,3.644e-05,2.032e-05,2.848e-05,5.53e-05,6.61e-05,5.262e-05,6.376e-05,5.13e-05,6.498e-05,5.368e-05,7.314e-05,4.9e-05,3.808e-05,3.614e-05,2.93e-05,4.562e-05,2.718e-05,3.72e-05,3.818e-05,3.35e-05,3.432e-05,2.898e-05,3.138e-05,7.21e-05,9.09e-05,6.592e-05,5.408e-05,6.94e-05,6.008e-05,7.216e-05,4.874e-05,5.408e-05,5.886e-05
738,1.1958e-05,1.9622e-05,1.0628e-05,1.6424e-05,3.64e-05,2.118e-05,1.9906e-05,2.806e-05,1.6178e-05,2.634e-05,5.522e-05,5.53e-05,5.464e-05,6.088e-05,4.8e-05,6.578e-05,5.176e-05,7.39e-05,5.05e-05,4.326e-05,3.274e-05,2.668e-05,3.69e-05,2.194e-05,3.108e-05,3.566e-05,2.95e-05,2.796e-05,2.684e-05,3.082e-05,6.514e-05,7.668e-05,5.072e-05,3.916e-05,5.516e-05,4.604e-05,7.384e-05,4.866e-05,4.884e-05,5.762e-05
740,1.184e-05,1.8428e-05,3.234e-05,1.2876e-05,3.438e-05,2.104e-05,1.995e-05,2.468e-05,1.2584e-05,2.084e-05,5.304e-05,5.648e-05,5.232e-05,5.456e-05,5.088e-05,5.684e-05,4.72e-05,7.056e-05,4.688e-05,3.46e-05,3.104e-05,2.234e-05,3.44e-05,2.344e-05,2.882e-05,3.344e-05,2.882e-05,2.6e-05,2.38e-05,2.714e-05,6.564e-05,6.592e-05,3.344e-05,3.322e-05,4.724e-05,4.484e-05,6.664e-05,2.936e-05,4.162e-05,4.522e-05
742,6.322e-06,2.452e-05,3.138e-05,1.0898e-05,2.816e-05,2.362e-05,1.5698e-05,2.81e-05,1.614e-05,2.19e-05,4.678e-05,5.702e-05,5.132e-05,5.49e-05,4.284e-05,5.448e-05,4.878e-05,6.722e-05,3.766e-05,3.48e-05,2.578e-05,2.028e-05,3.18e-05,2.142e-05,2.776e-05,3.318e-05,2.716e-05,2.706e-05,2.312e-05,2.498e-05,5.642e-05,7.574e-05,3.51e-05,3.672e-05,3.824e-05,4.91e-05,6.738e-05,3.948e-05,2.842e-05,3.744e-05
744,3.696e-07,2.11e-05,3.18e-05,1.5836e-06,2.302e-05,1.9008e-05,2.106e-05,1.413e-05,7.196e-06,1.8204e-05,4.876e-05,6.322e-05,5.068e-05,5.772e-05,4.63e-05,4.834e-05,5e-05,6.778e-05,4.078e-05,3.882e-05,2.498e-05,1.8072e-05,2.908e-05,1.8238e-05,2.414e-05,2.912e-05,2.412e-05,2.108e-05,2.148e-05,2.776e-05,6.83e-05,7.82e-05,3.936e-05,3.29e-05,2.048e-05,3.242e-05,6.176e-05,5.284e-05,1.8936e-05,4.282e-05
746,5.114e-06,1.0662e-05,3.53e-05,7.254e-06,1.3212e-05,2.332e-05,2.036e-05,1.35e-05,2.982e-06,2.444e-05,3.978e-05,6.038e-05,4.954e-05,5.808e-05,4.786e-05,4.076e-05,4.63e-05,5.942e-05,4.112e-05,4.634e-05,2.232e-05,1.3992e-05,2.786e-05,1.9626e-05,2.224e-05,3.076e-05,1.9294e-05,1.8344e-05,2.154e-05,2.264e-05,4.976e-05,5.646e-05,3.814e-05,1.6352e-05,2.888e-05,3.118e-05,5.748e-05,4.01e-05,3.252e-05,2.84e-05
748,1.411e-05,2.078e-05,3.918e-05,5.638e-06,1.7996e-05,2.67e-05,1.9022e-05,2.218e-05,4.888e-06,2.422e-05,4.042e-05,5.426e-05,4.248e-05,6.204e-05,4.268e-05,4.41e-05,3.586e-05,6.53e-05,3.982e-05,4.356e-05,1.731e-05,1.3968e-05,2.674e-05,2.098e-05,2.098e-05,2.982e-05,1.8236e-05,2.048e-05,2.176e-05,2.204e-05,5.684e-05,5.32e-05,3.148e-05,6.598e-06,2.232e-05,2.468e-05,6.118e-05,4.246e-05,1.586e-05,2.08e-05
750,9.04e-06,3.596e-05,2.004e-05,6.682e-06,2.468e-05,2.332e-05,1.4918e-05,2.248e-05,0,2.274e-05,4.736e-05,5.612e-05,4.326e-05,6.478e-05,4.452e-05,3.544e-05,3.706e-05,5.69e-05,4.036e-05,4.536e-05,1.7534e-05,1.3114e-05,2.42e-05,2.116e-05,2.002e-05,2.628e-05,2.08e-05,1.4696e-05,2.398e-05,2.216e-05,6.284e-05,6.282e-05,3.516e-05,1.1292e-05,1.8538e-05,4.724e-05,5.986e-05,4.466e-05,2.45e-05,1.966e-05
752,2.64e-05,3.488e-05,2.912e-05,1.6138e-05,7.314e-06,3.194e-05,2.442e-05,1.7568e-05,0,2.074e-05,3.966e-05,5.81e-05,4.634e-05,5.086e-05,4.932e-05,3.008e-05,4.364e-05,6.08e-05,3.586e-05,4.58e-05,1.929e-05,1.3722e-05,2.116e-05,1.8708e-05,2.052e-05,2.296e-05,2.018e-05,1.2092e-05,2.244e-05,2.208e-05,7.19e-05,5.016e-05,3.184e-05,1.1078e-05,1.7988e-05,3.974e-05,2.486e-05,6.226e-05,1.7174e-05,1.8036e-05
754,1.4602e-05,2.278e-05,3.848e-05,7.306e-06,1.019e-05,3.808e-05,1.4034e-05,1.2736e-05,0,2.304e-05,3.142e-05,5.214e-05,5.676e-05,4.952e-05,4.448e-05,2.46e-05,4.648e-05,5.664e-05,4.576e-05,4.626e-05,1.65e-05,1.2856e-05,2.346e-05,2.152e-05,2.07e-05,2.554e-05,2.182e-05,1.2662e-05,2.584e-05,2.442e-05,7.498e-05,6.79e-05,3.658e-05,2.17e-06,3.11e-05,3.888e-05,3.654e-05,6.086e-05,3.63e-05,1.2284e-05
756,3.034e-05,2.316e-05,3.002e-05,1.146e-05,1.1158e-05,3.188e-05,2.508e-05,7.204e-06,0,2.57e-05,3.534e-05,5.072e-05,5.77e-05,5.732e-05,5.434e-05,2.488e-05,4.354e-05,4.502e-05,4.008e-05,5.412e-05,1.6742e-05,1.4816e-05,1.968e-05,2.19e-05,1.8514e-05,2.302e-05,1.8944e-05,1.5206e-05,2.294e-05,2.262e-05,6.776e-05,5.738e-05,3.602e-05,0,2.948e-05,2.58e-05,3.896e-05,5.648e-05,3.93e-05,1.2272e-05
758,2.264e-05,3.284e-05,5.5e-05,2.43e-05,9.41e-06,3.366e-05,2.178e-05,3.646e-06,1.6454e-06,2.94e-05,3.528e-05,5.342e-05,5.558e-05,5.376e-05,5.222e-05,2.086e-05,3.698e-05,4.802e-05,4.588e-05,5.356e-05,1.0058e-05,1.4866e-05,1.8898e-05,2.092e-05,2.17e-05,2.718e-05,1.5816e-05,1.3808e-05,2.336e-05,2.41e-05,6.908e-05,4.07e-05,4.772e-05,0,2.816e-05,2.23e-05,2.378e-05,6.198e-05,4.062e-05,1.4262e-05
760,2.77e-05,2.65e-05,4.866e-05,2.664e-05,6.976e-06,4.384e-05,3.028e-05,9.814e-06,1.2524e-06,3.542e-05,3.9e-05,5.452e-05,5.424e-05,4.606e-05,4.806e-05,2.138e-05,3.678e-05,4.374e-05,4.024e-05,5.44e-05,1.502e-05,1.6468e-05,1.9956e-05,2.098e-05,1.869e-05,2.296e-05,1.4736e-05,1.198e-05,2.638e-05,2.4e-05,7.118e-05,5.302e-05,4.596e-05,2.004e-07,3.294e-05,2.718e-05,4.186e-06,7.042e-05,4.684e-05,1.9786e-05
762,2.658e-05,4.018e-05,5.76e-05,3.95e-05,3.956e-06,2.856e-05,4.228e-05,8.48e-06,1.9058e-05,2.56e-05,3.764e-05,5.016e-05,4.556e-05,6.602e-05,5.522e-05,2.11e-05,3.946e-05,3.728e-05,4.262e-05,5.514e-05,8.95e-06,1.6246e-05,2e-05,2.3e-05,2.168e-05,2.85e-05,1.4478e-05,1.8648e-05,2.98e-05,2.74e-05,5.722e-05,6.018e-05,4.762e-05,2.71e-06,3.958e-05,3.45e-05,2.222e-05,6.238e-05,4.368e-05,2.1e-05
764,4.278e-05,4.446e-05,5.562e-05,4.58e-05,1.8778e-05,3.286e-05,4.074e-05,1.4212e-05,2.46e-05,2.8e-05,3.752e-05,4.816e-05,5.664e-05,4.494e-05,6.774e-05,1.969e-05,3.664e-05,4.452e-05,4.808e-05,6.382e-05,6.11e-06,1.3228e-05,1.6502e-05,2.588e-05,2.022e-05,2.48e-05,1.0626e-05,1.3994e-05,2.678e-05,2.502e-05,6.67e-05,6.182e-05,6.048e-05,0,5.88e-05,3.872e-05,7.178e-06,7.334e-05,3.68e-05,9.34e-06
766,4.744e-05,4.508e-05,5.008e-05,4.014e-05,1.9146e-05,4.242e-05,4.172e-05,2.492e-05,3.432e-05,3.09e-05,3.554e-05,4.904e-05,6.298e-05,4.558e-05,6.698e-05,1.441e-05,3.186e-05,2.884e-05,4.964e-05,6.352e-05,9.356e-06,1.5626e-05,1.5354e-05,1.9296e-05,2.236e-05,2.456e-05,1.4466e-05,1.7192e-05,2.622e-05,2.192e-05,7.8e-05,4.31e-05,6.16e-05,0,5.006e-05,3.822e-05,1.4804e-05,9.272e-05,3.584e-05,1.5596e-05
768,4.78e-05,3.908e-05,6.906e-05,4.856e-05,2.854e-06,4.518e-05,3.608e-05,1.6388e-05,3.592e-05,1.7778e-05,3.45e-05,4.31e-05,4.004e-05,5.23e-05,6.852e-05,1.232e-05,3.086e-05,2.126e-05,5.626e-05,6.322e-05,1.83e-06,8.428e-06,1.993e-05,2.88e-05,1.6382e-05,2.308e-05,7.792e-06,2.156e-05,1.78e-05,2.666e-05,7.664e-05,5.546e-05,6.932e-05,1.4228e-05,6.7e-05,4.244e-05,3.284e-06,8.144e-05,4.806e-05,4.15e-05
770,5.418e-05,5.032e-05,3.906e-05,6.05e-05,2.962e-06,4.76e-05,3.748e-05,3.036e-05,3.32e-05,2.032e-05,3.538e-05,2.698e-05,5.938e-05,6.92e-05,6.536e-05,8.638e-06,3.622e-05,2.362e-05,5.814e-05,6.926e-05,7.124e-07,1.527e-05,1.7766e-05,2.768e-05,1.5386e-05,2.318e-05,7.482e-06,1.4112e-05,1.889e-05,2.356e-05,6.382e-05,5.784e-05,6.642e-05,1.7914e-05,6.9e-05,5.434e-05,7.094e-06,8.918e-05,5.626e-05,2.088e-05
772,5.8e-05,5.142e-05,2.314e-05,6.324e-05,1.757e-05,2.978e-05,6.354e-05,2.746e-05,4.372e-05,1.7744e-05,4.296e-05,3.038e-05,5.51e-05,6.292e-05,6.088e-05,9.414e-06,2.568e-05,2.524e-05,5.508e-05,6.19e-05,4.11e-06,1.14e-05,1.6114e-05,2.664e-05,1.886e-05,1.9146e-05,1.2928e-05,2.082e-05,1.9254e-05,2.382e-05,6.612e-05,5.254e-05,6.734e-05,1.8624e-05,6.088e-05,3.98e-05,2.506e-05,9.47e-05,6.32e-05,4.41e-05
774,6.12e-05,4.774e-05,5.298e-05,6.692e-05,1.7842e-05,4.834e-05,7.798e-05,2.234e-05,5.686e-05,1.1972e-05,3.682e-05,3.476e-05,5.318e-05,6.06e-05,6.904e-05,1.0678e-05,2.15e-05,8.412e-06,5.12e-05,6.616e-05,3.484e-06,1.219e-05,1.9894e-05,2.73e-05,1.5808e-05,1.5362e-05,7.538e-06,2.462e-05,2.066e-05,2.88e-05,6.458e-05,6.052e-05,5.654e-05,4.816e-05,6.314e-05,4.862e-05,1.366e-05,8.022e-05,6.538e-05,5.314e-05
776,6.556e-05,4.184e-05,7.074e-05,8.23e-05,2.822e-06,7.226e-05,7.454e-05,4.842e-05,6.568e-05,1.0506e-05,3.84e-05,5.836e-05,4.848e-05,6.064e-05,7.33e-05,1.201e-05,4.28e-05,6.198e-07,4.292e-05,5.916e-05,7.408e-06,2.008e-05,2.52e-05,3.032e-05,1.6336e-05,2.052e-05,1.3214e-05,2.29e-05,1.4708e-05,1.7548e-05,5.97e-05,4.912e-05,8.094e-05,7.738e-05,7.416e-05,5.032e-05,3.892e-06,6.638e-05,9.256e-05,4.362e-05
778,5.702e-05,5.618e-05,7.75e-05,9.25e-05,9.112e-06,5.034e-05,5.562e-05,4.942e-05,7.074e-05,1.8798e-05,4.694e-05,3.816e-05,5.548e-05,7.032e-05,6.47e-05,1.9548e-05,2.912e-05,0,4.608e-05,5.766e-05,1.6282e-05,2.534e-05,1.072e-05,3.094e-05,1.7556e-05,1.166e-05,2.058e-05,2.264e-05,8.34e-06,1.4398e-05,7.452e-05,4.076e-05,8.986e-05,6.846e-05,0.00010422,6.064e-05,1.1458e-06,0.0001113,7.298e-05,7.018e-05
780,7.836e-05,6.738e-05,8.52e-05,0.0001093,-1.6941e-21,4.306e-05,6.596e-05,2.734e-05,8.384e-05,5.766e-06,4.708e-05,2.984e-05,3.73e-05,8.71e-05,7.164e-05,2.082e-05,2.462e-05,0,5.27e-05,5.624e-05,1.6624e-05,2.888e-05,1.0924e-05,2.702e-05,1.5738e-05,1.6344e-05,1.0624e-05,2.29e-05,1.2234e-05,1.54e-05,5.42e-05,3.588e-05,9.61e-05,8.266e-05,0.00010388,5.5e-05,1.4584e-05,0.00011638,9.876e-05,8.39e-05
