Wavelength [nm],Background (Mel),Modulation (Mel),Background (LMS),Modulation (LMS)380,1.18e-05,7.788e-06,4.094e-06,9.578e-06,1.0992e-05,7.026e-06,1.1076e-05,8.97e-06,2.546e-06,8.724e-06,8.94e-06,1.265e-05,1.0704e-05,1.2298e-05,9.736e-06,1.1702e-05,1.167e-05,7.086e-06,9.536e-06,1.0074e-05,1.3872e-06,3.342e-06,4.368e-06,5.218e-06,3.318e-06,4.142e-06,4.478e-06,2.272e-06,3.106e-06,5.612e-06,1.2322e-05,1.1684e-05,2.444e-05,1.3588e-05,1.2176e-05,1.5188e-05,1.3264e-05,1.8948e-05,2.224e-05,1.2714e-05
382,1.2028e-05,1.0006e-05,6.704e-06,1.01e-05,9.176e-06,6.29e-06,8.824e-06,7.43e-06,3.438e-06,7.88e-06,1.0492e-05,1.3832e-05,7.1e-06,1.0234e-05,5.396e-06,1.0844e-05,1.2146e-05,7.96e-06,1.113e-05,1.17e-05,1.9838e-06,3.292e-06,3.636e-06,4.622e-06,3.06e-06,4.632e-06,4.276e-06,1.6338e-06,2.622e-06,4.538e-06,1.3092e-05,1.0832e-05,2.396e-05,1.3236e-05,6.436e-06,1.4648e-05,1.0952e-05,1.6366e-05,1.3458e-05,1.5928e-05
384,9.502e-06,9.068e-06,5.82e-06,9.624e-06,8.254e-06,9.154e-06,1.241e-05,5.276e-06,5.574e-06,7.748e-06,1.0074e-05,1.3484e-05,7.104e-06,1.201e-05,1.0032e-05,7.72e-06,8.16e-06,7.1e-06,1.131e-05,1.0892e-05,3.034e-06,2.502e-06,4.708e-06,4.152e-06,3.992e-06,3.944e-06,4.918e-06,1.5058e-06,2.882e-06,4.362e-06,1.2686e-05,1.2212e-05,2.006e-05,1.2234e-05,1.004e-05,1.52e-05,1.0374e-05,1.6894e-05,1.4826e-05,1.2076e-05
386,8.678e-06,8.226e-06,5.55e-06,1.0674e-05,6.62e-06,8.732e-06,1.0974e-05,7.592e-06,2.798e-06,7.086e-06,1.1112e-05,1.2146e-05,8.432e-06,1.248e-05,8.51e-06,9.714e-06,8.79e-06,7.358e-06,1.152e-05,1.2962e-05,3.14e-06,2.48e-06,4.328e-06,3.686e-06,3.828e-06,4.548e-06,4.232e-06,1.398e-06,2.798e-06,5.526e-06,1.2148e-05,1.526e-05,1.5842e-05,1.422e-05,8.206e-06,1.4592e-05,1.1058e-05,1.5926e-05,1.4298e-05,1.5814e-05
388,8.556e-06,5.868e-06,5.87e-06,8.812e-06,8.286e-06,9.144e-06,1.2052e-05,7.806e-06,2.958e-06,5.092e-06,9.814e-06,1.399e-05,9.196e-06,1.299e-05,7.302e-06,9.502e-06,9.26e-06,1.0502e-05,1.0896e-05,1.074e-05,2.208e-06,2.958e-06,3.648e-06,3.898e-06,3.81e-06,3.864e-06,4.026e-06,1.2184e-06,2.872e-06,4.714e-06,1.3796e-05,1.614e-05,1.8088e-05,1.1462e-05,6.054e-06,1.6398e-05,1.5118e-05,1.9174e-05,1.3018e-05,1.6498e-05
390,8.836e-06,5.568e-06,3.33e-06,6.092e-06,9.284e-06,9.95e-06,1.2862e-05,7.738e-06,2.514e-06,7.09e-06,1.0626e-05,1.1368e-05,7.222e-06,1.0538e-05,8.718e-06,1.09e-05,9.528e-06,1.0824e-05,1.0132e-05,1.07e-05,2.142e-06,2.626e-06,3.944e-06,3.728e-06,4.334e-06,4.608e-06,3.752e-06,8.492e-07,3.812e-06,3.956e-06,1.0988e-05,1.6284e-05,1.5934e-05,9.686e-06,5.27e-06,2.156e-05,1.4176e-05,1.7492e-05,1.2278e-05,1.8048e-05
392,7.466e-06,7.094e-06,3.518e-06,4.66e-06,9.134e-06,9.286e-06,1.3806e-05,6.622e-06,2.888e-07,5.858e-06,1.1888e-05,1.014e-05,8.138e-06,9.634e-06,8.226e-06,1.0348e-05,1.1316e-05,1.094e-05,1.2134e-05,9.44e-06,1.8088e-06,2.896e-06,4.374e-06,3.952e-06,3.988e-06,4.64e-06,4.248e-06,1.944e-06,3.24e-06,5.866e-06,1.606e-05,1.7504e-05,1.6152e-05,9.218e-06,5.266e-06,1.567e-05,1.0618e-05,1.8116e-05,1.389e-05,1.329e-05
394,9.086e-06,8.31e-06,4.404e-06,5.234e-06,6.83e-06,6.964e-06,1.4446e-05,5.62e-06,0,3.762e-06,7.482e-06,1.0548e-05,1.022e-05,1.266e-05,9.108e-06,8.23e-06,1.2136e-05,9.04e-06,9.342e-06,9.972e-06,2.512e-06,2.74e-06,5.104e-06,4.122e-06,3.01e-06,4.16e-06,4.692e-06,1.222e-06,3.34e-06,5.274e-06,1.603e-05,1.4462e-05,1.6282e-05,7.77e-06,6.188e-06,1.7048e-05,1.1782e-05,1.537e-05,1.1954e-05,1.4554e-05
396,4.918e-06,9.888e-06,9.212e-07,6.612e-06,6.706e-06,7.39e-06,1.1056e-05,6.126e-06,5.702e-08,4.646e-06,8.902e-06,6.274e-06,8.804e-06,1.1194e-05,6.632e-06,9.666e-06,9.906e-06,1.015e-05,9.784e-06,7.584e-06,1.2346e-06,2.88e-06,2.626e-06,3.528e-06,3.786e-06,4.174e-06,3.51e-06,1.0036e-06,2.312e-06,4.934e-06,1.3772e-05,1.458e-05,1.8758e-05,8.316e-06,2.244e-06,1.8408e-05,1.0376e-05,1.4884e-05,1.1224e-05,1.2786e-05
398,8.324e-06,7.072e-06,4.356e-06,5.128e-06,5.364e-06,9.184e-06,1.2874e-05,4.102e-06,7.81e-07,2.182e-06,7.776e-06,5.668e-06,8.652e-06,1.1654e-05,6.998e-06,7.22e-06,8.056e-06,8.996e-06,9.474e-06,1.0316e-05,2.302e-06,2.64e-06,2.772e-06,2.944e-06,3.702e-06,4.396e-06,2.786e-06,1.8008e-06,2.534e-06,5.394e-06,1.6842e-05,1.3906e-05,1.1142e-05,5.704e-06,5.516e-06,1.6364e-05,1.4114e-05,1.4574e-05,1.086e-05,1.4806e-05
400,5.658e-06,7.69e-06,3.91e-06,5.318e-06,4.688e-06,1.0352e-05,1.0626e-05,7.05e-06,0,2.128e-06,6.922e-06,6.73e-06,8.786e-06,1.052e-05,7.126e-06,1.0002e-05,1.0372e-05,7.476e-06,1.0174e-05,1.108e-05,2.734e-06,3.006e-06,3.468e-06,3.138e-06,3.766e-06,3.124e-06,3.366e-06,1.6954e-06,1.9274e-06,5.784e-06,1.43e-05,1.2768e-05,1.4168e-05,7.044e-06,6.632e-06,2.006e-05,1.1152e-05,1.465e-05,8.89e-06,1.2794e-05
402,6.236e-06,7.768e-06,2.504e-06,6.042e-06,6.574e-06,8.974e-06,1.0586e-05,4.006e-06,3.496e-07,3.906e-06,8.784e-06,6.628e-06,7.44e-06,9.426e-06,6.826e-06,9.78e-06,8.928e-06,7.144e-06,9.228e-06,9.2e-06,3.024e-06,2.71e-06,3.572e-06,2.662e-06,3.948e-06,3.384e-06,3.288e-06,1.8324e-06,3.358e-06,4.998e-06,1.2298e-05,1.4806e-05,1.4312e-05,5.998e-06,4.036e-06,1.8264e-05,9.906e-06,1.286e-05,1.2086e-05,1.2456e-05
404,5.404e-06,6.03e-06,5.666e-06,6.686e-06,9.026e-06,7.184e-06,1.0166e-05,3.184e-06,4.082e-07,3.552e-06,7.602e-06,6.06e-06,9.332e-06,8.978e-06,7.034e-06,8.246e-06,8.526e-06,7.03e-06,1.0838e-05,8.196e-06,2.574e-06,3.112e-06,2.308e-06,3.658e-06,3.366e-06,3.826e-06,3.404e-06,2.048e-06,2.548e-06,5.24e-06,1.4474e-05,1.4634e-05,1.1742e-05,6.87e-06,7.31e-06,1.524e-05,9.594e-06,1.1762e-05,1.1422e-05,1.4772e-05
406,5.698e-06,7.64e-06,7.074e-06,6.208e-06,7.916e-06,8.61e-06,8.782e-06,5.07e-06,7.678e-07,2.464e-06,5.058e-06,7.196e-06,9.86e-06,7.596e-06,7.142e-06,8.948e-06,9.598e-06,7.802e-06,1.1666e-05,8.484e-06,2.494e-06,3.546e-06,3.044e-06,2.634e-06,3.702e-06,3.554e-06,2.98e-06,1.6488e-06,2.47e-06,4.654e-06,1.5492e-05,1.246e-05,1.1534e-05,5.684e-06,7.488e-06,1.3486e-05,9.524e-06,1.1984e-05,7.784e-06,1.4008e-05
408,5.574e-06,4.994e-06,5.75e-06,2.788e-06,6.426e-06,9.082e-06,7.8e-06,4.546e-06,1.7406e-06,2.788e-06,5.616e-06,4.514e-06,9.078e-06,6.694e-06,7.492e-06,6.838e-06,7.346e-06,6.198e-06,9.338e-06,7.64e-06,2.288e-06,3.612e-06,2.898e-06,2.25e-06,3.62e-06,3.532e-06,3.172e-06,1.811e-06,2.35e-06,4.82e-06,1.3526e-05,1.0992e-05,1.0826e-05,5.438e-06,6.054e-06,1.1786e-05,1.3316e-05,8.132e-06,9.456e-06,1.5036e-05
410,7.072e-06,6.212e-06,5.78e-06,5.008e-06,6.896e-06,7.304e-06,9.248e-06,4.4e-06,5.066e-06,3.594e-06,5.504e-06,5.444e-06,7.644e-06,6.102e-06,7.232e-06,7.08e-06,5.092e-06,6.714e-06,8.876e-06,6.462e-06,2.006e-06,3.494e-06,1.867e-06,1.9336e-06,3.184e-06,3.39e-06,2.616e-06,2.438e-06,2.456e-06,4.912e-06,1.7308e-05,1.6194e-05,9.358e-06,7.574e-06,6.704e-06,1.4564e-05,1.6602e-05,1.0272e-05,1.0318e-05,1.6374e-05
412,5.916e-06,7.596e-06,5.898e-06,5.552e-06,6.38e-06,9.546e-06,8.006e-06,5.826e-06,3.952e-06,4.862e-06,4.878e-06,6.208e-06,7.69e-06,7.276e-06,6.686e-06,9.292e-06,6.834e-06,7.348e-06,8.63e-06,7.158e-06,2.186e-06,3.838e-06,3.088e-06,1.8334e-06,3.196e-06,2.854e-06,2.726e-06,2.992e-06,2.256e-06,4.468e-06,1.5984e-05,1.286e-05,1.3524e-05,9.674e-06,1.0294e-05,1.3254e-05,1.4862e-05,1.1252e-05,1.2346e-05,1.2944e-05
414,9.202e-06,1.1058e-05,1.2156e-05,9.026e-06,1.1296e-05,1.109e-05,8.52e-06,9.016e-06,8.624e-06,6.39e-06,7.046e-06,5.576e-06,8.102e-06,8.628e-06,8.226e-06,8.552e-06,6.786e-06,7.058e-06,9.534e-06,7.316e-06,3.542e-06,3.504e-06,2.98e-06,2.46e-06,3.754e-06,3.46e-06,3.332e-06,3.12e-06,1.8576e-06,4.334e-06,2.206e-05,1.8098e-05,1.5628e-05,1.4904e-05,1.7606e-05,1.669e-05,1.924e-05,1.6222e-05,1.6102e-05,1.6672e-05
416,1.9574e-05,2.164e-05,2.08e-05,1.844e-05,2.212e-05,2.152e-05,2.132e-05,1.9262e-05,1.9626e-05,1.8976e-05,9.766e-06,8.522e-06,1.0528e-05,1.022e-05,1.2108e-05,1.0562e-05,9.682e-06,1.0842e-05,1.232e-05,1.0104e-05,3.26e-06,4.09e-06,3.394e-06,3.56e-06,3.76e-06,3.724e-06,3.5e-06,3.518e-06,2.37e-06,4.778e-06,3.71e-05,3.214e-05,3.174e-05,2.922e-05,3.122e-05,3.076e-05,3.258e-05,2.862e-05,3.094e-05,3.008e-05
418,4.64e-05,4.968e-05,4.852e-05,4.578e-05,4.918e-05,4.704e-05,4.818e-05,4.378e-05,4.62e-05,4.458e-05,1.744e-05,1.6394e-05,1.6284e-05,1.6762e-05,1.8176e-05,1.6602e-05,1.687e-05,1.803e-05,1.9088e-05,1.6896e-05,4.552e-06,5.372e-06,5.146e-06,4.512e-06,4.968e-06,4.828e-06,4.988e-06,5.58e-06,4.414e-06,6.01e-06,7.198e-05,6.618e-05,6.662e-05,6.518e-05,6.51e-05,6.708e-05,6.782e-05,6.564e-05,6.656e-05,6.364e-05
420,9.21e-05,9.416e-05,9.442e-05,9.06e-05,9.578e-05,9.134e-05,9.202e-05,9.102e-05,9.19e-05,8.976e-05,3.014e-05,2.774e-05,2.924e-05,2.864e-05,3.05e-05,3.116e-05,2.816e-05,3.15e-05,3.016e-05,2.846e-05,6.62e-06,7.544e-06,6.902e-06,5.992e-06,6.58e-06,7.002e-06,6.714e-06,7.592e-06,6.41e-06,8.074e-06,0.00013112,0.00012852,0.00012676,0.00012598,0.00012776,0.0001306,0.00012726,0.0001266,0.0001271,0.00012574
422,0.00015142,0.0001514,0.00015216,0.00014804,0.0001522,0.00015192,0.0001514,0.00014988,0.00015042,0.0001491,4.518e-05,4.33e-05,4.49e-05,4.338e-05,4.508e-05,4.624e-05,4.362e-05,4.564e-05,4.542e-05,4.368e-05,9.38e-06,1.025e-05,9.922e-06,8.9e-06,9.784e-06,9.742e-06,9.268e-06,1.051e-05,9.342e-06,1.0406e-05,0.000217,0.000215,0.0002144,0.0002122,0.0002152,0.000214,0.0002164,0.0002126,0.000214,0.0002138
424,0.0002086,0.0002116,0.000211,0.0002084,0.0002106,0.0002112,0.0002098,0.00021,0.0002114,0.000207,6.008e-05,5.894e-05,5.968e-05,5.83e-05,5.822e-05,6.158e-05,5.798e-05,6.122e-05,6.1e-05,5.918e-05,1.3242e-05,1.3934e-05,1.426e-05,1.3458e-05,1.3434e-05,1.3424e-05,1.2704e-05,1.43e-05,1.2646e-05,1.3724e-05,0.0003286,0.0003258,0.0003266,0.0003242,0.000326,0.0003264,0.0003278,0.0003272,0.0003254,0.0003264
426,0.0002616,0.0002652,0.0002658,0.000264,0.0002648,0.000266,0.0002654,0.0002644,0.0002664,0.0002642,7.528e-05,7.294e-05,7.528e-05,7.222e-05,7.46e-05,7.646e-05,7.364e-05,7.536e-05,7.702e-05,7.474e-05,1.8078e-05,1.8274e-05,1.839e-05,1.7158e-05,1.7582e-05,1.876e-05,1.7646e-05,1.957e-05,1.7438e-05,1.801e-05,0.0004716,0.0004694,0.0004708,0.000468,0.0004684,0.000471,0.0004736,0.0004706,0.0004722,0.00047
428,0.000311,0.0003118,0.0003128,0.0003096,0.0003126,0.0003148,0.0003148,0.0003144,0.0003186,0.0003156,8.894e-05,8.65e-05,8.782e-05,8.774e-05,8.87e-05,9.002e-05,8.808e-05,8.988e-05,9.038e-05,8.956e-05,2.322e-05,2.344e-05,2.388e-05,2.282e-05,2.3e-05,2.41e-05,2.274e-05,2.52e-05,2.308e-05,2.344e-05,0.0006374,0.0006328,0.0006356,0.0006326,0.0006346,0.0006382,0.0006394,0.0006364,0.0006394,0.0006392
430,0.0003502,0.0003524,0.0003514,0.0003486,0.0003504,0.0003534,0.0003542,0.0003524,0.0003592,0.0003516,9.97e-05,9.848e-05,9.852e-05,9.828e-05,9.916e-05,0.00010094,9.9e-05,0.00010104,0.00010034,9.984e-05,2.724e-05,2.85e-05,2.89e-05,2.722e-05,2.76e-05,2.818e-05,2.782e-05,2.956e-05,2.768e-05,2.784e-05,0.0007808,0.0007808,0.0007812,0.0007782,0.0007804,0.0007876,0.0007898,0.0007858,0.000787,0.0007862
432,0.0003692,0.0003714,0.0003716,0.0003686,0.0003712,0.0003746,0.000375,0.0003734,0.00038,0.0003728,0.0001052,0.00010352,0.00010458,0.00010424,0.000106,0.00010688,0.00010458,0.00010764,0.00010592,0.00010634,3.144e-05,3.26e-05,3.274e-05,3.112e-05,3.148e-05,3.252e-05,3.178e-05,3.334e-05,3.14e-05,3.158e-05,0.0008816,0.0008822,0.0008814,0.0008794,0.0008806,0.000889,0.0008934,0.000889,0.0008926,0.000891
434,0.0003574,0.0003582,0.0003586,0.0003572,0.0003592,0.0003616,0.0003628,0.000362,0.0003668,0.0003618,0.0001033,0.00010174,0.00010298,0.00010144,0.00010434,0.00010398,0.00010218,0.00010444,0.00010456,0.0001046,3.396e-05,3.482e-05,3.524e-05,3.4e-05,3.396e-05,3.538e-05,3.426e-05,3.59e-05,3.424e-05,3.382e-05,0.0009198,0.00092,0.0009194,0.0009188,0.0009206,0.000929,0.000932,0.0009288,0.0009326,0.0009312
436,0.0003004,0.0003018,0.000301,0.0003,0.0003026,0.0003036,0.0003062,0.0003046,0.000311,0.0003046,9.044e-05,8.932e-05,8.932e-05,8.844e-05,8.974e-05,9.044e-05,8.87e-05,8.992e-05,9.108e-05,9.1e-05,3.442e-05,3.514e-05,3.552e-05,3.468e-05,3.476e-05,3.586e-05,3.466e-05,3.646e-05,3.45e-05,3.412e-05,0.0008902,0.000891,0.0008912,0.000893,0.0008926,0.0009,0.0009026,0.0009016,0.0009032,0.0009042
438,0.0002122,0.0002136,0.0002148,0.0002136,0.0002152,0.0002164,0.0002174,0.000215,0.000224,0.0002194,6.91e-05,6.88e-05,6.79e-05,6.734e-05,6.836e-05,6.978e-05,6.77e-05,6.95e-05,6.938e-05,7.038e-05,3.322e-05,3.426e-05,3.454e-05,3.366e-05,3.358e-05,3.466e-05,3.36e-05,3.526e-05,3.374e-05,3.37e-05,0.0008088,0.0008114,0.00081,0.0008126,0.0008136,0.0008174,0.0008218,0.00082,0.0008204,0.0008238
440,0.00012616,0.00012456,0.00012452,0.00012452,0.00012544,0.00012704,0.0001268,0.00012532,0.0001321,0.0001294,4.722e-05,4.768e-05,4.746e-05,4.778e-05,4.792e-05,4.792e-05,4.662e-05,4.982e-05,4.868e-05,4.93e-05,3.206e-05,3.226e-05,3.286e-05,3.166e-05,3.204e-05,3.3e-05,3.24e-05,3.328e-05,3.204e-05,3.188e-05,0.0006866,0.0006884,0.0006882,0.0006868,0.000687,0.0006924,0.0006964,0.000696,0.0006976,0.0006992
442,6.71e-05,6.782e-05,6.756e-05,6.606e-05,6.616e-05,6.756e-05,6.77e-05,6.508e-05,7.164e-05,6.912e-05,3.618e-05,3.518e-05,3.584e-05,3.47e-05,3.554e-05,3.576e-05,3.522e-05,3.738e-05,3.636e-05,3.682e-05,2.992e-05,3.052e-05,3.104e-05,2.934e-05,3.02e-05,3.104e-05,3.036e-05,3.136e-05,3.022e-05,2.9e-05,0.0005216,0.0005238,0.0005224,0.000525,0.0005228,0.0005254,0.0005312,0.0005298,0.0005304,0.0005332
444,4.942e-05,4.858e-05,4.9e-05,4.91e-05,4.99e-05,4.812e-05,4.956e-05,4.87e-05,5.348e-05,5.076e-05,3.33e-05,3.28e-05,3.326e-05,3.232e-05,3.326e-05,3.27e-05,3.256e-05,3.452e-05,3.334e-05,3.46e-05,2.842e-05,2.826e-05,2.93e-05,2.82e-05,2.838e-05,2.92e-05,2.858e-05,2.934e-05,2.808e-05,2.772e-05,0.000358,0.0003606,0.0003616,0.0003636,0.0003618,0.0003644,0.0003684,0.000368,0.0003672,0.000371
446,4.776e-05,4.74e-05,4.766e-05,4.676e-05,4.682e-05,4.75e-05,4.864e-05,4.604e-05,4.972e-05,4.908e-05,3.338e-05,3.428e-05,3.434e-05,3.384e-05,3.454e-05,3.382e-05,3.404e-05,3.398e-05,3.466e-05,3.516e-05,2.75e-05,2.738e-05,2.846e-05,2.714e-05,2.742e-05,2.872e-05,2.768e-05,2.828e-05,2.752e-05,2.714e-05,0.0002194,0.0002214,0.0002216,0.0002228,0.0002226,0.0002234,0.0002264,0.0002264,0.0002262,0.000227
448,5.106e-05,4.988e-05,5.018e-05,4.994e-05,4.934e-05,5.068e-05,5.052e-05,4.87e-05,5.282e-05,5.118e-05,3.596e-05,3.752e-05,3.614e-05,3.624e-05,3.748e-05,3.56e-05,3.718e-05,3.658e-05,3.52e-05,3.822e-05,2.884e-05,2.844e-05,2.936e-05,2.804e-05,2.88e-05,2.996e-05,2.832e-05,2.962e-05,2.866e-05,2.8e-05,0.00013598,0.0001371,0.00013544,0.00013854,0.00013662,0.00013714,0.00013836,0.00013864,0.00013886,0.00013834
450,5.472e-05,5.256e-05,5.43e-05,5.376e-05,5.372e-05,5.298e-05,5.41e-05,5.418e-05,5.732e-05,5.546e-05,4.03e-05,3.986e-05,3.986e-05,3.942e-05,4.038e-05,3.916e-05,3.902e-05,3.962e-05,3.992e-05,4.12e-05,3.186e-05,3.062e-05,3.154e-05,3.044e-05,3.16e-05,3.274e-05,3.082e-05,3.226e-05,3.148e-05,3.084e-05,0.0001051,0.00010636,0.00010508,0.00010888,0.00010678,0.00010582,0.00010698,0.00010774,0.0001058,0.00010708
452,5.684e-05,5.502e-05,5.578e-05,5.53e-05,5.638e-05,5.568e-05,5.608e-05,5.704e-05,5.88e-05,5.844e-05,4.092e-05,4.238e-05,4.142e-05,4.162e-05,4.238e-05,4.172e-05,4.022e-05,4.172e-05,4.144e-05,4.228e-05,3.37e-05,3.298e-05,3.422e-05,3.3e-05,3.36e-05,3.5e-05,3.334e-05,3.452e-05,3.376e-05,3.298e-05,9.736e-05,9.912e-05,9.994e-05,0.00010148,9.976e-05,9.932e-05,9.868e-05,0.0001013,9.864e-05,9.924e-05
454,5.65e-05,5.496e-05,5.552e-05,5.492e-05,5.504e-05,5.48e-05,5.646e-05,5.604e-05,5.792e-05,5.866e-05,4.136e-05,4.198e-05,4.134e-05,4.188e-05,4.184e-05,4.114e-05,4.19e-05,4.198e-05,4.23e-05,4.324e-05,3.43e-05,3.416e-05,3.512e-05,3.428e-05,3.428e-05,3.532e-05,3.496e-05,3.53e-05,3.492e-05,3.332e-05,9.482e-05,9.578e-05,9.896e-05,9.81e-05,9.468e-05,9.576e-05,9.628e-05,9.788e-05,9.424e-05,9.542e-05
456,5.646e-05,5.61e-05,5.484e-05,5.548e-05,5.4e-05,5.52e-05,5.612e-05,5.778e-05,5.74e-05,5.814e-05,4.092e-05,4.268e-05,4.156e-05,4.356e-05,4.384e-05,4.188e-05,4.242e-05,4.254e-05,4.294e-05,4.378e-05,3.612e-05,3.566e-05,3.684e-05,3.59e-05,3.596e-05,3.742e-05,3.634e-05,3.648e-05,3.652e-05,3.578e-05,9.332e-05,9.404e-05,9.524e-05,9.756e-05,9.458e-05,9.578e-05,9.394e-05,9.632e-05,9.588e-05,9.816e-05
458,5.768e-05,5.624e-05,5.68e-05,5.726e-05,5.678e-05,5.764e-05,5.888e-05,5.878e-05,5.676e-05,6.036e-05,4.358e-05,4.62e-05,4.436e-05,4.566e-05,4.528e-05,4.518e-05,4.568e-05,4.422e-05,4.48e-05,4.636e-05,3.85e-05,3.842e-05,3.896e-05,3.848e-05,3.854e-05,3.962e-05,3.908e-05,3.89e-05,3.95e-05,3.796e-05,9.524e-05,9.582e-05,9.658e-05,9.708e-05,9.536e-05,9.684e-05,9.5e-05,9.77e-05,9.802e-05,9.822e-05
460,6.064e-05,5.872e-05,6.018e-05,5.94e-05,5.892e-05,5.986e-05,6.166e-05,6.096e-05,6.092e-05,6.224e-05,4.676e-05,4.806e-05,4.748e-05,4.872e-05,4.76e-05,4.702e-05,4.858e-05,4.606e-05,4.728e-05,4.998e-05,4.128e-05,4.042e-05,4.138e-05,4.102e-05,4.124e-05,4.238e-05,4.164e-05,4.214e-05,4.208e-05,4.066e-05,9.728e-05,9.772e-05,9.83e-05,9.942e-05,9.53e-05,9.834e-05,9.86e-05,9.84e-05,9.952e-05,9.91e-05
462,6.294e-05,6.184e-05,6.222e-05,6.21e-05,6.23e-05,6.232e-05,6.398e-05,6.33e-05,6.256e-05,6.566e-05,4.91e-05,4.986e-05,5.088e-05,5e-05,5.058e-05,5.068e-05,5.062e-05,4.906e-05,5.028e-05,5.148e-05,4.402e-05,4.306e-05,4.356e-05,4.392e-05,4.424e-05,4.49e-05,4.482e-05,4.492e-05,4.504e-05,4.368e-05,9.894e-05,9.972e-05,9.91e-05,0.00010108,9.676e-05,0.00010004,9.854e-05,0.00010096,0.00010226,0.00010114
464,6.692e-05,6.536e-05,6.448e-05,6.652e-05,6.574e-05,6.632e-05,6.696e-05,6.724e-05,6.652e-05,6.824e-05,5.052e-05,5.396e-05,5.244e-05,5.26e-05,5.234e-05,5.24e-05,5.346e-05,5.262e-05,5.348e-05,5.296e-05,4.742e-05,4.644e-05,4.666e-05,4.71e-05,4.662e-05,4.794e-05,4.816e-05,4.762e-05,4.856e-05,4.704e-05,0.00010024,0.0001008,0.0001005,0.00010106,9.94e-05,0.00010364,0.00010104,0.0001035,0.0001026,0.00010308
466,6.996e-05,6.902e-05,6.79e-05,6.948e-05,6.778e-05,7.038e-05,6.974e-05,7.14e-05,7.024e-05,7.264e-05,5.452e-05,5.63e-05,5.5e-05,5.664e-05,5.45e-05,5.568e-05,5.866e-05,5.528e-05,5.574e-05,5.632e-05,5.096e-05,5.022e-05,5.068e-05,5.132e-05,5.116e-05,5.238e-05,5.166e-05,5.164e-05,5.28e-05,5.118e-05,0.00010268,0.00010388,0.00010246,0.0001053,0.00010328,0.00010862,0.0001063,0.00010804,0.00010776,0.00010642
468,7.618e-05,7.594e-05,7.41e-05,7.36e-05,7.436e-05,7.594e-05,7.696e-05,7.946e-05,7.262e-05,7.89e-05,5.748e-05,5.932e-05,5.95e-05,5.932e-05,5.856e-05,5.948e-05,6.12e-05,5.946e-05,6.044e-05,5.992e-05,5.694e-05,5.506e-05,5.59e-05,5.634e-05,5.59e-05,5.798e-05,5.642e-05,5.694e-05,5.758e-05,5.67e-05,0.00011196,0.00011142,0.00011068,0.00011148,0.00010998,0.00011438,0.00010974,0.00011558,0.0001138,0.00011444
470,7.736e-05,7.77e-05,7.624e-05,7.524e-05,7.568e-05,7.726e-05,7.792e-05,7.8e-05,7.46e-05,7.822e-05,5.738e-05,6.14e-05,6.038e-05,6.156e-05,5.804e-05,6.07e-05,6.168e-05,5.98e-05,6.038e-05,6.046e-05,5.89e-05,5.726e-05,5.73e-05,5.87e-05,5.804e-05,5.966e-05,5.9e-05,5.89e-05,5.956e-05,5.884e-05,0.00011212,0.00011134,0.00011128,0.00010982,0.00010938,0.00011196,0.00011052,0.00011406,0.00011256,0.00011424
472,7.652e-05,7.7e-05,7.398e-05,7.47e-05,7.342e-05,7.596e-05,7.612e-05,7.846e-05,7.302e-05,7.702e-05,5.758e-05,5.968e-05,6.02e-05,6.052e-05,5.732e-05,5.95e-05,6.07e-05,5.76e-05,5.686e-05,6.034e-05,5.942e-05,5.816e-05,5.818e-05,5.952e-05,5.864e-05,5.924e-05,5.964e-05,5.94e-05,6.04e-05,5.932e-05,0.00010836,0.0001083,0.0001074,0.0001092,0.00010612,0.0001103,0.00010858,0.00010998,0.00010872,0.00011118
474,7.584e-05,7.62e-05,7.292e-05,7.364e-05,7.204e-05,7.396e-05,7.508e-05,7.704e-05,7.142e-05,7.638e-05,5.51e-05,5.846e-05,5.84e-05,5.844e-05,5.556e-05,5.74e-05,5.826e-05,5.604e-05,5.652e-05,5.718e-05,5.982e-05,5.87e-05,5.87e-05,5.988e-05,5.906e-05,5.978e-05,6.002e-05,5.992e-05,6.102e-05,6.004e-05,0.00010548,0.00010626,0.00010294,0.00010556,0.0001036,0.00010712,0.00010578,0.0001076,0.0001065,0.0001092
476,7.312e-05,7.326e-05,6.922e-05,7.144e-05,6.998e-05,7.14e-05,7.348e-05,7.344e-05,6.866e-05,7.402e-05,5.086e-05,5.57e-05,5.472e-05,5.5e-05,5.086e-05,5.43e-05,5.54e-05,5.382e-05,5.26e-05,5.422e-05,5.872e-05,5.748e-05,5.744e-05,5.854e-05,5.812e-05,5.896e-05,5.984e-05,5.842e-05,5.988e-05,5.91e-05,0.00010064,9.998e-05,9.888e-05,9.878e-05,9.784e-05,0.0001026,0.00010184,0.00010262,0.00010092,0.00010086
478,7.05e-05,7.116e-05,6.814e-05,6.928e-05,6.936e-05,6.884e-05,7.176e-05,7.19e-05,6.732e-05,7.23e-05,5.038e-05,5.242e-05,5.28e-05,5.294e-05,4.936e-05,5.258e-05,5.37e-05,5.182e-05,5.088e-05,5.192e-05,5.918e-05,5.8e-05,5.752e-05,5.882e-05,5.856e-05,5.866e-05,5.952e-05,5.886e-05,6.018e-05,5.936e-05,9.684e-05,9.64e-05,9.464e-05,9.428e-05,9.414e-05,9.804e-05,9.69e-05,9.818e-05,9.786e-05,9.8e-05
480,7.332e-05,7.388e-05,7.034e-05,7.3e-05,7.068e-05,7.29e-05,7.428e-05,7.65e-05,7.006e-05,7.482e-05,5.15e-05,5.458e-05,5.364e-05,5.448e-05,4.96e-05,5.412e-05,5.43e-05,5.21e-05,5.244e-05,5.236e-05,6.308e-05,6.198e-05,6.23e-05,6.298e-05,6.214e-05,6.268e-05,6.314e-05,6.304e-05,6.46e-05,6.324e-05,0.00010038,9.824e-05,9.65e-05,9.834e-05,9.51e-05,9.928e-05,9.79e-05,9.862e-05,9.862e-05,0.00010028
482,7.72e-05,7.882e-05,7.41e-05,7.834e-05,7.666e-05,7.714e-05,7.934e-05,7.882e-05,7.46e-05,7.97e-05,5.3e-05,5.75e-05,5.592e-05,5.804e-05,5.262e-05,5.54e-05,5.828e-05,5.514e-05,5.52e-05,5.424e-05,6.906e-05,6.884e-05,6.748e-05,6.982e-05,6.82e-05,6.9e-05,6.98e-05,6.944e-05,7.048e-05,6.98e-05,0.00010448,0.0001025,9.958e-05,0.00010162,9.978e-05,0.00010378,0.00010102,0.00010434,0.0001019,0.00010154
484,7.738e-05,7.918e-05,7.576e-05,7.74e-05,7.582e-05,7.682e-05,7.864e-05,7.988e-05,7.386e-05,7.768e-05,5.658e-05,5.934e-05,5.94e-05,6.016e-05,5.508e-05,6.042e-05,5.98e-05,5.78e-05,5.864e-05,5.72e-05,7.32e-05,7.196e-05,7.164e-05,7.31e-05,7.202e-05,7.24e-05,7.326e-05,7.306e-05,7.472e-05,7.304e-05,0.00010384,0.00010212,0.00010104,0.00010128,9.932e-05,0.00010242,0.00010158,0.00010332,0.0001016,0.00010458
486,7.774e-05,7.788e-05,7.506e-05,7.5e-05,7.514e-05,7.576e-05,7.788e-05,7.908e-05,7.196e-05,7.686e-05,6.614e-05,6.816e-05,6.862e-05,6.92e-05,6.448e-05,6.832e-05,6.904e-05,6.708e-05,6.726e-05,6.578e-05,7.772e-05,7.612e-05,7.566e-05,7.74e-05,7.62e-05,7.602e-05,7.726e-05,7.666e-05,7.836e-05,7.674e-05,0.00010292,0.00010054,9.774e-05,9.756e-05,9.88e-05,0.0001005,9.894e-05,0.00010122,9.98e-05,0.00010324
488,7.758e-05,7.912e-05,7.394e-05,7.648e-05,7.496e-05,7.684e-05,7.758e-05,7.834e-05,7.234e-05,7.67e-05,0.00010342,0.00010484,0.00010468,0.00010544,0.00010102,0.00010446,0.00010494,0.00010282,0.00010278,0.00010148,9.346e-05,9.226e-05,9.186e-05,9.324e-05,9.202e-05,9.204e-05,9.216e-05,9.142e-05,9.324e-05,9.184e-05,0.00010424,0.00010084,0.00010064,9.874e-05,9.948e-05,0.00010222,0.00010104,0.00010244,0.00010222,0.00010478
490,8.044e-05,8.192e-05,7.798e-05,8.046e-05,7.94e-05,8.006e-05,8.028e-05,8.062e-05,7.602e-05,8.092e-05,0.0002352,0.0002352,0.0002354,0.0002372,0.0002316,0.0002346,0.0002328,0.000231,0.0002296,0.0002274,0.0001524,0.00015146,0.00015114,0.000152,0.00015064,0.00014958,0.00014986,0.00014892,0.00015044,0.00014814,0.0001147,0.00011284,0.00011264,0.0001114,0.00011174,0.00011602,0.00011454,0.00011448,0.00011386,0.0001173
492,8.738e-05,8.852e-05,8.42e-05,8.668e-05,8.572e-05,8.666e-05,8.576e-05,8.594e-05,8.174e-05,8.526e-05,0.0005532,0.000554,0.0005528,0.0005544,0.0005504,0.000548,0.000547,0.0005448,0.0005442,0.0005394,0.0003012,0.0003,0.0002996,0.0003008,0.0002994,0.000296,0.0002964,0.0002952,0.000296,0.0002936,0.00014332,0.00014046,0.0001391,0.00013788,0.00014094,0.00014052,0.00014038,0.0001414,0.00013934,0.00014114
494,9.024e-05,9.382e-05,8.84e-05,9.03e-05,9.128e-05,9.118e-05,8.96e-05,9.034e-05,8.706e-05,8.912e-05,0.0011042,0.0011058,0.0011034,0.0011064,0.0011012,0.0011002,0.0010972,0.0010926,0.0010928,0.0010884,0.0005618,0.0005618,0.0005606,0.0005614,0.0005602,0.0005568,0.0005568,0.0005544,0.0005554,0.0005524,0.00017988,0.00017768,0.00017878,0.00017756,0.00017778,0.00018132,0.00017852,0.0001795,0.0001782,0.00017806
496,9.404e-05,9.688e-05,9.362e-05,9.538e-05,9.41e-05,9.636e-05,9.378e-05,9.346e-05,9.158e-05,9.224e-05,0.0016866,0.0016866,0.0016828,0.0016872,0.0016806,0.0016838,0.0016814,0.0016792,0.0016772,0.0016736,0.000822,0.0008212,0.00082,0.0008214,0.0008196,0.0008198,0.0008194,0.0008172,0.0008176,0.0008158,0.000216,0.0002136,0.0002148,0.0002126,0.0002142,0.000214,0.0002158,0.0002142,0.0002146,0.0002156
498,0.0001061,0.0001085,0.00010516,0.00010656,0.00010692,0.00010756,0.0001069,0.00010584,0.00010426,0.00010332,0.002242,0.002244,0.002238,0.002244,0.002236,0.002246,0.002244,0.002242,0.002242,0.002238,0.0010258,0.0010248,0.0010236,0.0010246,0.0010228,0.001028,0.0010284,0.001026,0.0010272,0.0010258,0.0002434,0.0002424,0.000244,0.0002406,0.0002418,0.0002434,0.0002418,0.0002428,0.000243,0.000243
500,0.00012912,0.00013128,0.00012818,0.00012832,0.00013042,0.00013102,0.00012932,0.00012912,0.00012812,0.00012666,0.002752,0.002754,0.002748,0.002752,0.002744,0.002766,0.002762,0.002762,0.002762,0.002758,0.0011582,0.0011572,0.0011568,0.0011572,0.0011552,0.0011648,0.0011662,0.0011642,0.0011658,0.0011644,0.0002588,0.0002578,0.00026,0.0002576,0.0002584,0.0002604,0.0002608,0.0002598,0.0002606,0.0002614
502,0.00015556,0.00015872,0.0001556,0.00015618,0.0001585,0.00015914,0.00015634,0.0001564,0.00015472,0.00015584,0.003182,0.003184,0.00318,0.003186,0.003176,0.00321,0.003204,0.003206,0.003206,0.003202,0.0012338,0.0012332,0.0012324,0.0012322,0.001231,0.0012446,0.0012456,0.001244,0.0012456,0.0012444,0.0002676,0.0002676,0.0002686,0.0002662,0.0002688,0.0002682,0.0002696,0.0002708,0.0002698,0.0002688
504,0.000177,0.00018028,0.00017616,0.00017986,0.0001789,0.00018088,0.00017742,0.00017856,0.00017754,0.0001781,0.00349,0.003492,0.003486,0.003494,0.003484,0.003532,0.003524,0.003524,0.003526,0.003522,0.0012688,0.0012682,0.0012672,0.0012672,0.0012658,0.0012834,0.0012838,0.001282,0.0012844,0.0012832,0.0002724,0.0002706,0.0002724,0.0002686,0.0002726,0.0002724,0.0002752,0.0002762,0.0002738,0.0002722
506,0.0001895,0.00019162,0.00018832,0.00019008,0.00019258,0.00019282,0.00018872,0.00018978,0.00018984,0.00018946,0.003602,0.003604,0.003598,0.003606,0.003598,0.003652,0.003648,0.003648,0.003652,0.003648,0.0012534,0.001253,0.001252,0.0012518,0.001251,0.0012704,0.0012712,0.0012698,0.001272,0.001272,0.0002644,0.000264,0.0002652,0.0002624,0.0002654,0.000268,0.000268,0.0002674,0.0002684,0.0002674
508,0.00019134,0.00019574,0.00019368,0.00019406,0.00019366,0.00019592,0.00019286,0.00019192,0.00019322,0.00019266,0.003436,0.003434,0.003432,0.003438,0.00343,0.003488,0.003482,0.003486,0.003492,0.003486,0.001138,0.001138,0.0011378,0.0011368,0.0011362,0.0011564,0.0011576,0.0011578,0.00116,0.0011602,0.0002426,0.0002442,0.0002456,0.000242,0.0002434,0.000247,0.000248,0.0002488,0.0002492,0.0002464
510,0.00019024,0.00019408,0.00019324,0.00019334,0.00019462,0.0001956,0.00019202,0.00019152,0.00019412,0.00019072,0.002992,0.002992,0.002988,0.002994,0.002988,0.00304,0.00304,0.003044,0.00305,0.003046,0.0009004,0.0009008,0.0009006,0.0008996,0.0008986,0.0009168,0.0009184,0.00092,0.0009222,0.0009234,0.000209,0.0002092,0.0002112,0.0002104,0.0002098,0.0002132,0.0002128,0.0002136,0.0002146,0.0002132
512,0.00018662,0.00018984,0.00018848,0.0001893,0.00019,0.00019174,0.00018734,0.00018722,0.00019106,0.0001861,0.002384,0.002384,0.002382,0.002386,0.00238,0.00242,0.00242,0.002428,0.00243,0.002428,0.0005938,0.0005944,0.0005942,0.0005932,0.0005928,0.0006056,0.000607,0.0006086,0.0006102,0.0006124,0.00017596,0.00017694,0.0001776,0.00017604,0.00017552,0.00017816,0.0001773,0.000178,0.00018032,0.00017796
514,0.00017432,0.00017634,0.00017758,0.00017694,0.0001782,0.00017954,0.00017598,0.00017544,0.0001785,0.00017464,0.001768,0.001769,0.0017662,0.0017682,0.0017652,0.0017906,0.0017918,0.0017976,0.0018024,0.0018,0.0003412,0.0003414,0.0003412,0.0003404,0.00034,0.000347,0.0003476,0.0003486,0.0003496,0.0003512,0.00015456,0.00015618,0.00015834,0.00015556,0.00015564,0.00015526,0.0001549,0.00015548,0.00015842,0.00015522
516,0.0001544,0.0001567,0.00015734,0.00015542,0.00015916,0.00015866,0.00015644,0.00015294,0.00015764,0.00015478,0.0012304,0.001232,0.0012292,0.0012294,0.0012284,0.001244,0.0012452,0.0012502,0.001255,0.001253,0.0002112,0.0002118,0.0002118,0.0002112,0.0002108,0.0002134,0.0002138,0.0002144,0.0002148,0.000215,0.00014814,0.00014772,0.00015028,0.00014772,0.00014934,0.00014648,0.0001471,0.0001486,0.00015012,0.0001454
518,0.00013192,0.00013488,0.0001346,0.00013296,0.00013564,0.00013558,0.00013276,0.00013164,0.0001363,0.00013322,0.0007634,0.0007636,0.0007624,0.0007638,0.0007636,0.000774,0.000773,0.0007776,0.0007818,0.0007802,0.00016886,0.00016898,0.00016922,0.0001686,0.00016852,0.00016934,0.00016936,0.00016946,0.00016924,0.00016938,0.00014632,0.00014696,0.00014856,0.00014846,0.00014658,0.00014676,0.00014748,0.00014802,0.00014782,0.00014526
520,0.00012,0.00012386,0.00012334,0.00012186,0.00012386,0.00012356,0.00012244,0.00012022,0.00012372,0.00012134,0.0004654,0.0004662,0.0004644,0.0004644,0.0004652,0.0004718,0.0004718,0.0004742,0.0004776,0.0004766,0.00015808,0.00015888,0.0001584,0.00015772,0.00015754,0.0001586,0.00015874,0.00015892,0.0001583,0.0001587,0.0001469,0.00014696,0.00014942,0.00014862,0.0001473,0.0001487,0.00014844,0.00014936,0.0001488,0.00014638
522,0.00011786,0.0001183,0.00012108,0.0001196,0.00012224,0.0001218,0.0001207,0.00011778,0.00012194,0.00011784,0.000336,0.000336,0.0003366,0.0003356,0.0003368,0.0003396,0.00034,0.0003418,0.0003424,0.0003434,0.00015148,0.0001526,0.00015214,0.00015168,0.00015158,0.00015324,0.00015264,0.00015306,0.0001527,0.00015252,0.00014702,0.0001477,0.00014872,0.0001473,0.00014796,0.00014872,0.00014724,0.00014908,0.00014824,0.0001472
524,0.0001184,0.00011916,0.00012104,0.00011986,0.00012124,0.00012236,0.00012034,0.00011774,0.00012348,0.0001186,0.0002888,0.000289,0.000289,0.0002894,0.000289,0.0002914,0.0002922,0.0002926,0.0002938,0.0002946,0.00014516,0.00014604,0.0001458,0.00014522,0.0001454,0.00014722,0.00014692,0.00014728,0.00014676,0.00014656,0.00014402,0.00014716,0.00014756,0.00014666,0.00014638,0.00014736,0.0001458,0.0001477,0.00014712,0.00014668
526,0.00011988,0.00012078,0.0001226,0.00012126,0.0001229,0.00012394,0.00012144,0.00011846,0.00012424,0.00012146,0.0002678,0.0002678,0.0002674,0.0002662,0.0002674,0.000269,0.0002704,0.00027,0.0002716,0.0002726,0.00013996,0.0001403,0.00014036,0.00013948,0.0001399,0.00014172,0.0001415,0.00014198,0.00014094,0.00014132,0.00014304,0.00014464,0.00014586,0.00014522,0.00014512,0.0001455,0.00014362,0.00014674,0.0001465,0.00014486
528,0.00012284,0.00012148,0.000125,0.00012206,0.00012398,0.0001259,0.0001235,0.00012046,0.0001256,0.00012298,0.0002496,0.0002502,0.0002498,0.0002488,0.0002498,0.0002512,0.0002526,0.0002528,0.0002524,0.000254,0.0001344,0.00013526,0.00013464,0.00013424,0.0001348,0.00013628,0.00013608,0.00013652,0.00013552,0.00013534,0.00013902,0.00014254,0.00014346,0.00014154,0.00014156,0.00014204,0.00014004,0.00014288,0.00014304,0.0001411
530,0.0001248,0.00012272,0.00012476,0.0001236,0.00012532,0.00012688,0.00012464,0.00012214,0.0001268,0.00012384,0.0002318,0.000231,0.0002304,0.0002304,0.0002326,0.0002332,0.0002328,0.0002336,0.0002336,0.0002352,0.00012928,0.00012986,0.00012948,0.00012914,0.00012936,0.00013098,0.00013014,0.0001309,0.0001297,0.00012974,0.0001333,0.0001364,0.00013416,0.00013646,0.00013484,0.00013634,0.00013472,0.00013664,0.00013708,0.00013444
532,0.0001266,0.0001242,0.00012736,0.00012552,0.00012698,0.0001272,0.00012614,0.00012386,0.000128,0.0001268,0.0002174,0.0002174,0.000217,0.0002158,0.0002176,0.0002186,0.0002176,0.0002182,0.0002186,0.0002204,0.00012622,0.00012756,0.00012684,0.0001264,0.00012646,0.0001279,0.00012712,0.00012842,0.00012702,0.00012726,0.00012996,0.00013044,0.00012926,0.0001309,0.00012942,0.00013146,0.00012832,0.00013232,0.00013102,0.00013006
534,0.0001281,0.00012596,0.00012894,0.00012762,0.00012878,0.00012838,0.00012716,0.00012436,0.00013034,0.0001278,0.0002058,0.000206,0.0002054,0.0002054,0.000206,0.0002044,0.0002054,0.0002058,0.0002052,0.000208,0.00012428,0.00012582,0.00012508,0.00012486,0.00012524,0.00012602,0.00012558,0.00012638,0.0001251,0.0001249,0.00012424,0.00012664,0.00012444,0.00012498,0.0001241,0.00012592,0.00012356,0.0001261,0.0001253,0.00012522
536,0.00012912,0.0001264,0.00013012,0.00012828,0.00012956,0.0001283,0.00012858,0.00012642,0.00013056,0.00012914,0.000195,0.0001946,0.00019604,0.00019464,0.0001957,0.000194,0.00019442,0.00019424,0.00019412,0.00019658,0.00012368,0.00012462,0.00012402,0.00012418,0.0001244,0.00012442,0.00012432,0.0001249,0.00012368,0.00012336,0.00011906,0.00012128,0.00012082,0.00012108,0.00011926,0.00012194,0.00011822,0.00012138,0.00011968,0.00011964
538,0.00012986,0.00012768,0.00013152,0.00013014,0.00013158,0.00013018,0.00013044,0.000129,0.0001308,0.00013054,0.0001874,0.00018732,0.00018802,0.00018642,0.0001877,0.00018606,0.00018558,0.00018684,0.00018608,0.00018896,0.00012364,0.00012464,0.00012394,0.00012398,0.00012404,0.0001238,0.0001239,0.00012458,0.0001233,0.0001228,0.0001167,0.00011606,0.00011804,0.00011726,0.00011714,0.0001171,0.00011362,0.0001181,0.00011642,0.00011668
540,0.00013036,0.00012768,0.00013086,0.00013036,0.000132,0.00013138,0.0001298,0.00012952,0.00013226,0.00013178,0.00018206,0.00018206,0.00018194,0.00018072,0.00018132,0.00018024,0.00018006,0.00018138,0.00017906,0.0001823,0.00012346,0.00012482,0.0001243,0.00012432,0.00012428,0.00012416,0.00012386,0.00012454,0.00012352,0.0001232,0.00011372,0.00011532,0.00011552,0.00011418,0.00011316,0.00011466,0.0001123,0.00011566,0.00011356,0.0001135
542,0.00012972,0.00012614,0.00012988,0.00012964,0.00013062,0.00013036,0.0001301,0.00012916,0.00013028,0.00013202,0.00017724,0.00017624,0.00017542,0.00017596,0.00017712,0.00017598,0.00017606,0.00017582,0.00017556,0.00017748,0.00012382,0.00012512,0.00012412,0.00012408,0.00012476,0.00012462,0.00012424,0.00012526,0.0001239,0.0001238,0.00011326,0.00011508,0.00011358,0.00011422,0.00011298,0.00011418,0.00011184,0.00011516,0.0001147,0.00011386
544,0.00012934,0.00012498,0.00012818,0.00012736,0.00012906,0.0001293,0.00012988,0.0001278,0.0001281,0.00013034,0.00017416,0.0001733,0.00017406,0.00017348,0.00017314,0.00017368,0.00017378,0.00017294,0.00017384,0.00017552,0.00012484,0.00012582,0.00012498,0.00012536,0.00012532,0.00012584,0.00012568,0.00012682,0.00012522,0.00012516,0.00011628,0.00011628,0.00011714,0.00011666,0.0001159,0.00011808,0.00011514,0.00011974,0.00011762,0.00011804
546,0.00012424,0.00011964,0.0001216,0.00012296,0.00012356,0.00012556,0.00012522,0.0001232,0.00012448,0.00012598,0.00017182,0.00017112,0.0001706,0.000171,0.00017086,0.00017202,0.00017178,0.00017148,0.00017078,0.00017274,0.00012486,0.00012598,0.00012538,0.00012564,0.00012568,0.00012668,0.00012656,0.0001272,0.00012624,0.00012618,0.0001218,0.00012216,0.0001214,0.00012258,0.00012064,0.00012438,0.0001223,0.00012572,0.00012286,0.00012444
548,0.0001179,0.00011412,0.00011546,0.00011688,0.00011758,0.000119,0.00011914,0.00011866,0.0001191,0.00012126,0.00017004,0.00016942,0.00016926,0.00016876,0.00016876,0.00017092,0.0001706,0.00017088,0.00016906,0.00017124,0.00012528,0.00012632,0.0001258,0.00012604,0.00012632,0.00012726,0.00012752,0.00012836,0.00012726,0.000127,0.000129,0.00012912,0.00012792,0.00012954,0.00012738,0.00013136,0.00012988,0.00013228,0.00013046,0.00013206
550,0.00011246,0.00010854,0.00010926,0.00011118,0.00011042,0.00011302,0.00011298,0.0001141,0.00011116,0.00011366,0.00016824,0.0001679,0.00016782,0.00016734,0.00016696,0.00017046,0.00017056,0.0001703,0.00016906,0.00017134,0.00012608,0.00012712,0.00012642,0.00012688,0.00012692,0.00012834,0.0001286,0.00012886,0.0001281,0.00012806,0.00013924,0.00013784,0.00013682,0.00013842,0.0001374,0.00014072,0.00013966,0.00014114,0.0001405,0.00014092
552,0.00010574,0.00010254,0.0001034,0.0001048,0.00010472,0.00010518,0.00010592,0.00010708,0.00010562,0.00010832,0.0001676,0.0001677,0.00016754,0.0001679,0.00016654,0.00016978,0.00017112,0.00016998,0.00016818,0.00016994,0.00012692,0.00012764,0.00012676,0.0001272,0.00012726,0.00012854,0.00012896,0.00012922,0.00012856,0.00012854,0.00015512,0.00015456,0.00015458,0.00015374,0.00015404,0.00015688,0.00015748,0.0001582,0.0001564,0.00015782
554,0.0001002,9.638e-05,9.724e-05,9.858e-05,9.836e-05,9.95e-05,0.00010024,0.00010076,9.878e-05,0.00010084,0.00016774,0.00016728,0.00016652,0.00016742,0.00016622,0.00016918,0.00016946,0.00016824,0.00016732,0.00016912,0.00012736,0.00012818,0.0001269,0.00012776,0.0001275,0.0001287,0.00012914,0.00012956,0.0001289,0.00012892,0.0002088,0.0002076,0.0002106,0.0002106,0.000209,0.0002106,0.0002102,0.00021,0.0002112,0.00021
556,9.704e-05,9.3e-05,9.35e-05,9.578e-05,9.43e-05,9.482e-05,9.698e-05,9.744e-05,9.564e-05,9.832e-05,0.0001675,0.0001671,0.0001665,0.0001668,0.00016558,0.00016876,0.00016948,0.00016808,0.0001673,0.0001689,0.00012762,0.00012838,0.00012752,0.00012804,0.00012768,0.00012898,0.00012912,0.00012932,0.00012894,0.00012848,0.0003642,0.0003614,0.0003656,0.0003634,0.0003628,0.0003626,0.0003624,0.0003606,0.0003604,0.0003608
558,9.546e-05,9.144e-05,9.222e-05,9.418e-05,9.344e-05,9.326e-05,9.508e-05,9.568e-05,9.432e-05,9.638e-05,0.0001682,0.00016786,0.00016682,0.00016766,0.00016712,0.00016884,0.00016938,0.00016848,0.00016674,0.00016906,0.00012864,0.0001285,0.00012806,0.00012852,0.00012824,0.0001291,0.0001289,0.00012918,0.00012898,0.00012866,0.0006796,0.0006782,0.0006814,0.0006796,0.0006782,0.0006762,0.0006752,0.0006732,0.000673,0.0006702
560,9.586e-05,9.196e-05,9.236e-05,9.536e-05,9.388e-05,9.45e-05,9.508e-05,9.648e-05,9.42e-05,9.706e-05,0.0001688,0.00016804,0.00016676,0.00016848,0.00016692,0.00016876,0.000169,0.00016806,0.00016718,0.00016882,0.00012932,0.0001289,0.00012886,0.00012872,0.00012874,0.00012908,0.00012934,0.00012948,0.00012908,0.00012872,0.0011638,0.0011618,0.0011648,0.0011626,0.0011616,0.0011548,0.001155,0.0011512,0.0011518,0.0011466
562,0.00010158,9.832e-05,9.726e-05,0.00010084,9.898e-05,9.996e-05,0.00010018,0.0001021,9.858e-05,0.00010102,0.00016786,0.00016758,0.00016668,0.0001683,0.00016662,0.00016788,0.00016912,0.00016862,0.00016712,0.00016832,0.00012924,0.0001289,0.0001292,0.0001291,0.00012898,0.00012914,0.0001297,0.00012888,0.00012914,0.00012852,0.0018212,0.0018192,0.0018224,0.0018196,0.0018164,0.001806,0.0018076,0.0018012,0.0018026,0.0017936
564,0.0001206,0.00011872,0.00011706,0.00012088,0.00011796,0.0001191,0.00012032,0.0001208,0.0001195,0.00012042,0.00016744,0.00016566,0.00016534,0.00016684,0.00016598,0.00016644,0.00016698,0.00016622,0.00016506,0.00016692,0.00012834,0.0001276,0.00012808,0.00012844,0.00012806,0.00012806,0.00012828,0.00012802,0.00012858,0.00012816,0.002762,0.002762,0.002762,0.00276,0.002758,0.002744,0.002746,0.002738,0.00274,0.00273
566,0.0001908,0.0001884,0.0001872,0.00019074,0.0001887,0.00018848,0.0001902,0.0001896,0.00018718,0.00018996,0.00016446,0.0001632,0.00016336,0.0001642,0.00016322,0.00016516,0.00016508,0.00016398,0.00016426,0.0001639,0.00012768,0.00012726,0.00012728,0.0001276,0.0001267,0.00012724,0.00012776,0.00012736,0.0001276,0.00012762,0.003772,0.00377,0.003772,0.003768,0.003766,0.003756,0.003758,0.003752,0.003754,0.003742
568,0.0003906,0.0003882,0.0003858,0.00039,0.0003868,0.0003872,0.000387,0.0003852,0.0003824,0.0003852,0.00016092,0.00015994,0.00015944,0.00016128,0.00016002,0.00016164,0.00016298,0.00016166,0.00016028,0.00016138,0.00012664,0.0001263,0.00012628,0.00012634,0.00012602,0.00012658,0.0001264,0.00012608,0.00012692,0.00012656,0.004788,0.004788,0.00479,0.004786,0.004782,0.004786,0.004792,0.004782,0.004786,0.004774
570,0.0007704,0.0007704,0.0007662,0.0007716,0.000767,0.000769,0.0007682,0.0007662,0.0007618,0.0007644,0.00015642,0.00015416,0.000155,0.00015618,0.00015502,0.00015808,0.0001581,0.0001568,0.00015576,0.00015668,0.00012446,0.00012372,0.0001241,0.00012392,0.000124,0.0001247,0.0001249,0.00012406,0.00012496,0.00012494,0.00578,0.00578,0.005778,0.005776,0.00577,0.005798,0.005808,0.005794,0.0058,0.005788
572,0.0013246,0.0013264,0.0013216,0.001327,0.001323,0.001331,0.001328,0.0013256,0.0013218,0.0013234,0.00015198,0.00014986,0.00014988,0.00015168,0.00015064,0.00015412,0.0001538,0.00015332,0.0001518,0.00015274,0.0001222,0.00012138,0.00012154,0.00012186,0.00012126,0.00012294,0.00012336,0.00012234,0.00012324,0.00012292,0.006682,0.00668,0.00668,0.006678,0.006672,0.00673,0.006742,0.006728,0.006732,0.006724
574,0.00209,0.00209,0.002086,0.002092,0.002088,0.002108,0.002104,0.0021,0.002096,0.002096,0.00014946,0.00014834,0.00014882,0.0001506,0.00014844,0.0001524,0.00015234,0.00015138,0.00015048,0.0001525,0.0001199,0.00011952,0.00011908,0.00011916,0.00011842,0.00012098,0.00012104,0.00012046,0.00012162,0.00012126,0.007472,0.007472,0.00747,0.007468,0.007462,0.007554,0.007568,0.007556,0.00756,0.007552
576,0.00304,0.003044,0.003038,0.003044,0.00304,0.003082,0.003072,0.00307,0.003064,0.003064,0.00015384,0.00015224,0.0001529,0.00015532,0.00015322,0.00015718,0.00015766,0.00015618,0.00015624,0.0001558,0.00011926,0.00011832,0.0001189,0.00011866,0.0001187,0.00012102,0.00012048,0.00012002,0.00012072,0.0001206,0.008114,0.008114,0.008108,0.00811,0.008104,0.008226,0.008242,0.00823,0.008234,0.008228
578,0.003976,0.00398,0.003972,0.003978,0.003976,0.004034,0.004024,0.00402,0.004014,0.004014,0.00017096,0.0001699,0.00017006,0.00017292,0.0001714,0.00017444,0.0001753,0.00017374,0.00017446,0.00017306,0.00012568,0.00012482,0.00012494,0.0001247,0.0001246,0.0001275,0.00012664,0.00012608,0.00012662,0.00012642,0.008556,0.008556,0.00855,0.008554,0.008546,0.00869,0.008708,0.008696,0.0087,0.008694
580,0.004898,0.0049,0.004894,0.004898,0.004896,0.004966,0.004952,0.004952,0.004948,0.004942,0.0002108,0.0002108,0.00021,0.000213,0.0002112,0.0002134,0.0002142,0.000213,0.0002128,0.0002116,0.00014432,0.00014306,0.00014342,0.00014338,0.00014278,0.00014572,0.00014474,0.00014438,0.00014516,0.00014448,0.008854,0.008856,0.00885,0.008852,0.008846,0.009,0.00902,0.009006,0.00901,0.009006
582,0.00575,0.00575,0.005746,0.00575,0.005748,0.00582,0.005806,0.005804,0.005802,0.005796,0.0002834,0.0002822,0.0002824,0.0002844,0.000284,0.000285,0.0002844,0.0002832,0.0002832,0.0002822,0.00017906,0.00017782,0.00017852,0.0001786,0.00017762,0.00017988,0.00017908,0.00017874,0.00017908,0.00017864,0.009014,0.009016,0.009012,0.009012,0.009006,0.009158,0.009174,0.009162,0.009166,0.00916
584,0.00647,0.006468,0.006464,0.006468,0.006468,0.006534,0.00652,0.00652,0.00652,0.006508,0.00041,0.000409,0.000409,0.0004112,0.0004112,0.0004104,0.000409,0.0004078,0.000408,0.000406,0.0002326,0.0002318,0.0002322,0.000232,0.000231,0.0002332,0.0002316,0.0002308,0.0002314,0.000231,0.009062,0.009064,0.009062,0.009058,0.00905,0.009186,0.0092,0.009192,0.009194,0.009184
586,0.007024,0.007026,0.007018,0.007022,0.007024,0.00708,0.007062,0.007066,0.007068,0.007056,0.0006714,0.0006692,0.00067,0.0006724,0.0006718,0.0006664,0.0006648,0.0006622,0.0006632,0.0006606,0.0003206,0.0003196,0.00032,0.00032,0.000319,0.0003192,0.000318,0.0003174,0.0003178,0.0003166,0.008992,0.008994,0.008992,0.008986,0.008976,0.00908,0.00909,0.009082,0.009084,0.009076
588,0.007298,0.0073,0.007296,0.007298,0.0073,0.007344,0.007326,0.00733,0.007332,0.007324,0.0009972,0.000997,0.0009964,0.0009996,0.000998,0.00099,0.0009868,0.000985,0.000986,0.0009842,0.0004306,0.000429,0.000429,0.0004294,0.0004282,0.000427,0.0004254,0.0004248,0.0004246,0.0004238,0.008866,0.00887,0.008868,0.008862,0.008854,0.008918,0.008924,0.008922,0.008926,0.008914
590,0.007318,0.00732,0.007318,0.007318,0.00732,0.00735,0.007336,0.007338,0.007342,0.007338,0.0013096,0.0013106,0.0013098,0.001313,0.0013102,0.001302,0.0012996,0.0012978,0.001299,0.001298,0.0005644,0.0005638,0.0005634,0.0005638,0.0005622,0.0005596,0.0005582,0.0005578,0.0005572,0.000556,0.008678,0.008684,0.00868,0.008672,0.008666,0.008694,0.008702,0.008702,0.008706,0.008696
592,0.006972,0.006976,0.006976,0.006974,0.006974,0.006996,0.006988,0.006988,0.006994,0.006994,0.001514,0.0015146,0.0015138,0.0015166,0.001514,0.0015078,0.0015064,0.001505,0.0015066,0.0015046,0.0007242,0.000723,0.0007222,0.0007226,0.0007222,0.0007184,0.0007164,0.0007156,0.0007156,0.0007142,0.008432,0.008438,0.008436,0.00843,0.008422,0.00843,0.008436,0.00844,0.008444,0.008436
594,0.006212,0.00622,0.00622,0.006216,0.006216,0.006242,0.006238,0.006238,0.006242,0.006246,0.0015872,0.0015876,0.0015868,0.0015904,0.0015876,0.0015842,0.0015822,0.001582,0.0015874,0.0015846,0.0009068,0.0009052,0.0009048,0.0009056,0.0009044,0.0009012,0.0008992,0.000898,0.0008986,0.0008962,0.008144,0.00815,0.008146,0.00814,0.008134,0.008136,0.008144,0.00815,0.00815,0.008148
596,0.005036,0.005042,0.005044,0.00504,0.00504,0.005078,0.005072,0.005074,0.005084,0.005084,0.001557,0.0015586,0.0015574,0.0015632,0.0015584,0.001563,0.0015604,0.001561,0.0015646,0.0015636,0.0011196,0.0011186,0.001118,0.0011176,0.0011166,0.0011164,0.0011146,0.0011136,0.0011138,0.0011124,0.007782,0.007792,0.007784,0.007778,0.007772,0.00779,0.007798,0.007802,0.007806,0.0078
598,0.003898,0.003902,0.003904,0.0039,0.0039,0.003948,0.003942,0.003948,0.003956,0.003956,0.0014814,0.0014814,0.0014806,0.001485,0.0014822,0.001491,0.0014894,0.0014906,0.0014936,0.0014914,0.0013176,0.001317,0.0013168,0.001317,0.0013154,0.0013196,0.0013182,0.001317,0.0013172,0.0013152,0.00744,0.007448,0.00744,0.007436,0.007432,0.007472,0.00748,0.007484,0.007488,0.007484
600,0.002888,0.00289,0.002892,0.002888,0.002888,0.002938,0.002936,0.002942,0.002946,0.002946,0.0014038,0.0014042,0.001404,0.0014076,0.001405,0.0014176,0.0014168,0.0014164,0.0014204,0.0014186,0.0015146,0.0015142,0.0015134,0.001514,0.0015124,0.0015226,0.001522,0.00152,0.0015202,0.001518,0.007106,0.007112,0.007108,0.007102,0.007098,0.007166,0.007172,0.007178,0.00718,0.007176
602,0.002048,0.00205,0.002052,0.002048,0.002048,0.002094,0.002092,0.002096,0.0021,0.002098,0.001402,0.0014024,0.0014024,0.0014064,0.001403,0.0014174,0.0014166,0.0014166,0.0014188,0.0014186,0.0017052,0.0017046,0.001704,0.0017044,0.0017028,0.001721,0.0017202,0.0017178,0.0017184,0.0017168,0.006784,0.006792,0.006786,0.006782,0.00678,0.00687,0.006876,0.006882,0.006882,0.006878
604,0.0013864,0.0013866,0.00139,0.0013864,0.0013868,0.0014232,0.0014218,0.0014258,0.0014274,0.0014272,0.0015786,0.00158,0.001578,0.0015808,0.0015794,0.001597,0.001594,0.0015928,0.0015942,0.0015924,0.001886,0.0018848,0.001884,0.001885,0.0018828,0.0019096,0.0019088,0.0019064,0.001906,0.0019048,0.006476,0.006486,0.006476,0.006476,0.006472,0.006584,0.006588,0.006594,0.006596,0.006592
606,0.0008616,0.0008626,0.0008632,0.00086,0.0008612,0.0008874,0.0008846,0.0008878,0.0008898,0.00089,0.002032,0.002034,0.002032,0.002034,0.002032,0.002056,0.00205,0.00205,0.00205,0.00205,0.002058,0.002056,0.002056,0.002056,0.002054,0.00209,0.002088,0.002086,0.002086,0.002084,0.006128,0.006136,0.006126,0.006124,0.006122,0.006246,0.006246,0.006254,0.006256,0.00625
608,0.0005806,0.0005834,0.000586,0.000583,0.0005844,0.0005994,0.0005962,0.0006002,0.0005994,0.0006002,0.002686,0.002688,0.002684,0.002688,0.002686,0.002718,0.002712,0.002708,0.00271,0.002708,0.002164,0.002162,0.002162,0.002162,0.00216,0.0022,0.0022,0.002198,0.002198,0.002196,0.00572,0.005728,0.005716,0.005714,0.005714,0.005842,0.005844,0.00585,0.00585,0.005848
610,0.0004816,0.000484,0.0004866,0.0004836,0.0004836,0.000494,0.0004926,0.0004952,0.0004936,0.0004946,0.003442,0.00344,0.003438,0.003444,0.00344,0.003482,0.003476,0.00347,0.003468,0.00347,0.002182,0.002182,0.00218,0.002182,0.00218,0.002222,0.002222,0.00222,0.002222,0.00222,0.005194,0.005202,0.005192,0.005192,0.00519,0.00531,0.00531,0.00532,0.00532,0.00532
612,0.0004564,0.0004574,0.0004614,0.0004582,0.0004592,0.0004672,0.0004634,0.000467,0.000466,0.0004648,0.004236,0.004236,0.004232,0.00424,0.004232,0.00428,0.004272,0.004268,0.004266,0.004268,0.002102,0.002104,0.002102,0.002102,0.0021,0.00214,0.002142,0.002142,0.002142,0.002142,0.004556,0.004562,0.004554,0.004556,0.004554,0.004656,0.004654,0.004666,0.004666,0.004666
614,0.0004542,0.000456,0.000461,0.0004568,0.000457,0.000464,0.0004616,0.0004638,0.000462,0.0004618,0.005016,0.005016,0.005012,0.00502,0.005012,0.00506,0.005048,0.005044,0.005042,0.005046,0.0019262,0.0019284,0.0019256,0.0019266,0.0019246,0.0019602,0.0019626,0.001963,0.0019644,0.001965,0.00387,0.00388,0.003868,0.003872,0.003872,0.00395,0.003948,0.003958,0.003958,0.003958
616,0.0004638,0.000465,0.0004694,0.0004652,0.000467,0.0004692,0.0004684,0.0004716,0.0004684,0.0004686,0.00578,0.00578,0.005774,0.005786,0.005776,0.005816,0.005804,0.0058,0.005798,0.005802,0.0016396,0.0016424,0.0016392,0.0016406,0.0016386,0.001665,0.0016684,0.00167,0.0016714,0.001672,0.003118,0.003128,0.003116,0.00312,0.00312,0.003172,0.003172,0.003182,0.00318,0.003184
618,0.0004806,0.00048,0.0004858,0.0004818,0.0004818,0.0004814,0.0004794,0.0004836,0.0004808,0.000482,0.006366,0.006368,0.006362,0.006374,0.006362,0.006392,0.00638,0.006378,0.006376,0.006382,0.0013078,0.0013104,0.0013082,0.0013088,0.001307,0.0013252,0.0013286,0.0013302,0.001332,0.0013328,0.002408,0.002414,0.002406,0.002408,0.002408,0.002442,0.00244,0.002452,0.00245,0.002454
620,0.000503,0.000502,0.000508,0.0005046,0.0005036,0.0005034,0.000501,0.0005034,0.0005,0.0005022,0.006732,0.006734,0.006726,0.00674,0.006728,0.006746,0.006734,0.006734,0.006732,0.006738,0.0009756,0.0009776,0.000976,0.0009758,0.0009754,0.000986,0.0009896,0.000991,0.0009928,0.0009942,0.001767,0.0017752,0.0017644,0.0017694,0.0017688,0.001791,0.0017884,0.0017982,0.0017968,0.001802
622,0.0005408,0.000539,0.0005456,0.000541,0.000542,0.0005378,0.0005352,0.0005396,0.0005336,0.0005372,0.006924,0.006926,0.006918,0.00693,0.006918,0.00692,0.006912,0.006912,0.006914,0.006918,0.00067,0.0006708,0.0006692,0.0006696,0.0006694,0.0006758,0.0006788,0.0006798,0.0006808,0.0006822,0.0012008,0.0012086,0.0011988,0.001201,0.0012032,0.001215,0.0012136,0.0012224,0.0012216,0.0012248
624,0.0005978,0.0005968,0.000601,0.0005996,0.000599,0.000593,0.0005914,0.0005946,0.0005904,0.0005906,0.006958,0.00696,0.00695,0.006964,0.006952,0.00694,0.006932,0.006934,0.00694,0.00694,0.0004726,0.000474,0.0004724,0.0004732,0.0004726,0.0004742,0.0004768,0.0004766,0.000477,0.0004776,0.000807,0.0008146,0.0008086,0.0008096,0.0008094,0.0008148,0.0008112,0.0008188,0.0008168,0.000822
626,0.0006862,0.0006848,0.0006896,0.0006856,0.0006888,0.00068,0.0006764,0.0006802,0.0006758,0.0006756,0.006852,0.00685,0.006842,0.006854,0.006844,0.00682,0.006816,0.006822,0.006828,0.006826,0.0004942,0.000496,0.0004936,0.000495,0.0004944,0.0004904,0.0004908,0.0004908,0.0004896,0.0004886,0.0007258,0.0007308,0.0007248,0.0007258,0.0007268,0.000726,0.0007218,0.000727,0.0007252,0.000726
628,0.0007912,0.0007902,0.0007956,0.0007918,0.0007942,0.0007846,0.0007826,0.0007866,0.000781,0.0007846,0.006632,0.006632,0.006622,0.006634,0.006624,0.006608,0.006606,0.006612,0.006622,0.006616,0.00072,0.0007208,0.0007184,0.00072,0.0007192,0.000713,0.0007128,0.000712,0.000711,0.0007086,0.0009412,0.0009452,0.0009376,0.000939,0.000939,0.0009348,0.0009308,0.0009366,0.0009326,0.0009302
630,0.000902,0.0009022,0.0009034,0.0009032,0.0009044,0.0008984,0.0008968,0.0009018,0.0008962,0.0008968,0.006366,0.006364,0.006354,0.006368,0.006358,0.006362,0.00636,0.006368,0.006378,0.006374,0.0010194,0.0010194,0.0010172,0.0010188,0.0010186,0.0010148,0.0010148,0.0010134,0.001013,0.0010096,0.00126,0.001263,0.0012598,0.0012604,0.0012596,0.0012582,0.0012554,0.0012576,0.0012568,0.0012528
632,0.0010124,0.0010126,0.0010156,0.0010144,0.001016,0.0010148,0.0010134,0.001016,0.001014,0.0010138,0.006068,0.006064,0.006056,0.006068,0.006058,0.006092,0.00609,0.006098,0.00611,0.006102,0.0013384,0.0013384,0.0013358,0.001337,0.0013368,0.0013408,0.0013408,0.0013392,0.0013392,0.0013354,0.0016068,0.0016094,0.0016052,0.0016046,0.0016062,0.0016126,0.0016108,0.001612,0.0016146,0.0016102
634,0.0011274,0.0011268,0.0011286,0.0011256,0.0011284,0.0011336,0.0011326,0.0011358,0.0011336,0.0011334,0.005752,0.00575,0.00574,0.005754,0.005742,0.00581,0.005808,0.005816,0.005824,0.00582,0.001658,0.0016586,0.001656,0.0016562,0.0016548,0.0016702,0.001671,0.0016692,0.0016694,0.0016658,0.0019554,0.0019558,0.0019546,0.0019558,0.0019544,0.0019736,0.0019726,0.0019726,0.001974,0.0019694
636,0.0012466,0.0012446,0.0012464,0.0012452,0.0012464,0.001265,0.0012624,0.0012658,0.0012616,0.0012622,0.005402,0.0054,0.005394,0.005404,0.005394,0.005494,0.005492,0.0055,0.005506,0.005504,0.002,0.0019996,0.0019968,0.0019976,0.0019964,0.002028,0.002026,0.002026,0.002026,0.002022,0.002326,0.00233,0.00233,0.00233,0.002324,0.002366,0.002366,0.002366,0.002366,0.002364
638,0.0013494,0.0013502,0.001349,0.0013498,0.0013518,0.0013764,0.0013722,0.0013776,0.001374,0.0013754,0.005098,0.005096,0.00509,0.0051,0.00509,0.005214,0.00521,0.005216,0.005224,0.00522,0.002298,0.002298,0.002294,0.002296,0.002294,0.00234,0.00234,0.002338,0.002338,0.002334,0.002656,0.002656,0.002654,0.002656,0.002652,0.00271,0.002712,0.00271,0.00271,0.002708
640,0.0014494,0.0014504,0.0014508,0.0014504,0.0014526,0.001483,0.0014782,0.0014846,0.0014814,0.0014808,0.00484,0.004838,0.004832,0.004844,0.004832,0.004966,0.004962,0.004968,0.004974,0.00497,0.002552,0.00255,0.002548,0.002548,0.002548,0.002606,0.002606,0.002604,0.002604,0.0026,0.002918,0.002918,0.002916,0.002914,0.002912,0.002986,0.002986,0.002986,0.002984,0.002982
642,0.0015472,0.0015476,0.0015486,0.001548,0.0015502,0.0015854,0.0015802,0.0015842,0.001584,0.0015822,0.004616,0.004614,0.004608,0.00462,0.00461,0.004742,0.004734,0.00474,0.004744,0.004742,0.002742,0.002742,0.002738,0.002738,0.002736,0.002806,0.002804,0.002804,0.002804,0.0028,0.003076,0.003076,0.003072,0.003072,0.003066,0.003152,0.00315,0.003148,0.003154,0.00315
644,0.0016454,0.0016466,0.001644,0.0016474,0.0016476,0.0016838,0.0016786,0.0016854,0.001682,0.0016802,0.004432,0.00443,0.004426,0.004436,0.004426,0.00455,0.004542,0.004546,0.00455,0.004546,0.002862,0.002862,0.002858,0.00286,0.002858,0.00293,0.00293,0.00293,0.00293,0.002926,0.003126,0.003126,0.003122,0.003124,0.003116,0.003198,0.0032,0.0032,0.003204,0.0032
646,0.0017622,0.0017614,0.0017588,0.001763,0.0017642,0.0017974,0.001789,0.0017946,0.0017914,0.0017884,0.00426,0.004258,0.004254,0.004264,0.004252,0.004356,0.00435,0.004356,0.004358,0.004354,0.002922,0.002924,0.002918,0.00292,0.002918,0.002986,0.002986,0.002986,0.002986,0.002982,0.00312,0.003116,0.003116,0.003116,0.003108,0.00318,0.003184,0.003182,0.003182,0.003182
648,0.0018606,0.001861,0.0018584,0.0018628,0.0018652,0.0018916,0.0018838,0.0018906,0.0018892,0.0018852,0.00413,0.004128,0.004124,0.004132,0.004124,0.004204,0.004196,0.0042,0.004204,0.0042,0.00294,0.002942,0.002936,0.002938,0.002936,0.002994,0.002992,0.002996,0.002994,0.002992,0.003098,0.003096,0.003092,0.003094,0.00309,0.003142,0.003146,0.003146,0.003148,0.003148
650,0.0019394,0.0019404,0.001937,0.0019414,0.0019436,0.0019624,0.0019542,0.0019606,0.0019608,0.0019546,0.003982,0.003982,0.003978,0.003988,0.003978,0.004034,0.004028,0.004032,0.004034,0.00403,0.002926,0.002928,0.002922,0.002922,0.002922,0.002966,0.002964,0.002968,0.002966,0.002964,0.003048,0.003044,0.003048,0.003048,0.003042,0.003076,0.003084,0.003084,0.003082,0.003084
652,0.0019892,0.0019892,0.0019856,0.0019904,0.0019918,0.002004,0.0019944,0.0019986,0.002002,0.001995,0.0038,0.003796,0.003794,0.003802,0.003794,0.003828,0.003822,0.003828,0.003828,0.003824,0.002854,0.002856,0.00285,0.00285,0.00285,0.002878,0.002878,0.002882,0.00288,0.002878,0.002942,0.002938,0.002938,0.00294,0.002932,0.002958,0.00296,0.002962,0.002964,0.002962
654,0.002018,0.00202,0.002014,0.002022,0.002022,0.002028,0.002018,0.002022,0.002026,0.00202,0.003606,0.003604,0.0036,0.003608,0.0036,0.003616,0.00361,0.003614,0.003616,0.003612,0.002706,0.00271,0.002702,0.002704,0.002704,0.002718,0.002718,0.002722,0.002722,0.002722,0.002756,0.00275,0.002752,0.002752,0.002748,0.002756,0.002762,0.002764,0.002766,0.002764
656,0.00205,0.002054,0.002048,0.002056,0.002056,0.002054,0.002044,0.002044,0.00205,0.002042,0.003416,0.003416,0.003412,0.00342,0.003412,0.003412,0.003406,0.003412,0.003414,0.003412,0.002438,0.00244,0.002434,0.002436,0.002434,0.002438,0.002438,0.002444,0.002444,0.002444,0.00245,0.002442,0.002446,0.002448,0.002444,0.002442,0.002452,0.00245,0.002458,0.002456
658,0.002082,0.002084,0.002076,0.002084,0.002082,0.00208,0.002074,0.002072,0.00208,0.00207,0.003276,0.003274,0.003272,0.003282,0.003274,0.003268,0.003264,0.003266,0.00327,0.003266,0.002126,0.002128,0.002124,0.002126,0.002124,0.002124,0.002126,0.00213,0.00213,0.002132,0.002132,0.002128,0.002126,0.002128,0.002124,0.002124,0.002128,0.002128,0.002132,0.002136
660,0.00211,0.002112,0.002104,0.00211,0.002112,0.002108,0.0021,0.002098,0.002108,0.002098,0.003158,0.003156,0.003154,0.003162,0.003158,0.003148,0.003146,0.00315,0.003152,0.00315,0.0017924,0.001794,0.00179,0.0017918,0.0017914,0.001791,0.0017928,0.0017964,0.0017962,0.001798,0.0017984,0.0017978,0.0017984,0.0017978,0.001793,0.001793,0.0018016,0.0018022,0.0018046,0.0018074
662,0.002124,0.002128,0.002118,0.002128,0.002128,0.002128,0.00212,0.002118,0.002126,0.002118,0.003046,0.003044,0.00304,0.00305,0.003042,0.003036,0.003034,0.003042,0.003042,0.00304,0.0014544,0.0014552,0.0014526,0.0014528,0.0014528,0.0014556,0.0014568,0.0014612,0.0014608,0.0014622,0.0014668,0.0014682,0.0014734,0.001469,0.0014642,0.0014676,0.0014756,0.0014746,0.0014732,0.0014794
664,0.002102,0.00211,0.002098,0.002106,0.002106,0.002114,0.00211,0.002104,0.002118,0.002108,0.002902,0.0029,0.002898,0.002904,0.002902,0.0029,0.002904,0.002906,0.002906,0.002904,0.0011012,0.0011012,0.0011012,0.0011004,0.0011002,0.0011074,0.0011088,0.001113,0.0011116,0.0011134,0.0011238,0.001126,0.0011206,0.0011214,0.001116,0.0011242,0.0011312,0.0011318,0.0011334,0.0011362
666,0.0019948,0.002004,0.0019912,0.0019984,0.0019978,0.002016,0.00201,0.00201,0.002024,0.002012,0.002674,0.002674,0.002672,0.00268,0.002676,0.002692,0.00269,0.002696,0.002694,0.002696,0.00076,0.00076,0.0007596,0.00076,0.0007584,0.0007686,0.0007702,0.0007736,0.000773,0.0007744,0.000784,0.0007892,0.0007818,0.0007868,0.0007794,0.0007906,0.0007982,0.0007964,0.0008006,0.0008028
668,0.0018148,0.0018216,0.0018102,0.001814,0.0018172,0.0018436,0.0018358,0.0018364,0.0018502,0.0018388,0.002384,0.002384,0.002382,0.00239,0.002386,0.002412,0.002414,0.002418,0.002418,0.002418,0.000484,0.0004834,0.0004842,0.0004842,0.0004824,0.0004934,0.0004946,0.0004964,0.0004962,0.000498,0.0005062,0.000513,0.00051,0.0005102,0.0005068,0.0005182,0.0005204,0.000523,0.0005222,0.0005246
670,0.001588,0.0015918,0.001583,0.0015852,0.0015924,0.0016242,0.0016204,0.0016168,0.0016328,0.0016244,0.002058,0.002056,0.002052,0.00206,0.002056,0.002094,0.002096,0.0021,0.0021,0.0021,0.0002866,0.0002852,0.0002868,0.0002868,0.000285,0.0002944,0.0002948,0.0002958,0.000295,0.0002958,0.0003128,0.0003168,0.0003132,0.0003124,0.0003082,0.0003178,0.0003234,0.0003242,0.000324,0.0003246
672,0.0013412,0.0013472,0.001336,0.0013396,0.001343,0.0013808,0.0013798,0.001378,0.001389,0.0013794,0.001716,0.001717,0.0017142,0.0017196,0.0017186,0.001762,0.0017594,0.001766,0.0017658,0.0017656,0.00018292,0.00018236,0.00018322,0.00018376,0.00018202,0.00018838,0.00018938,0.00018946,0.00018892,0.00018854,0.0002112,0.0002148,0.0002142,0.0002138,0.0002088,0.0002148,0.0002212,0.0002228,0.0002194,0.000219
674,0.0010544,0.001062,0.0010506,0.001053,0.001056,0.0010984,0.0010936,0.0010908,0.0011054,0.0010966,0.0013392,0.0013426,0.00134,0.0013436,0.0013438,0.001384,0.0013826,0.0013876,0.0013898,0.0013892,0.00014234,0.0001413,0.0001422,0.0001425,0.00014172,0.0001471,0.00014726,0.00014706,0.00014792,0.00014598,0.00017328,0.00017542,0.000175,0.00017546,0.00016952,0.00017696,0.00018148,0.00017798,0.00017742,0.0001784
676,0.0007948,0.000801,0.0007942,0.0007952,0.0007948,0.0008324,0.0008292,0.0008262,0.0008374,0.000832,0.001011,0.0010112,0.0010092,0.0010108,0.0010128,0.0010476,0.00105,0.0010528,0.0010516,0.0010524,0.0001295,0.0001291,0.00013098,0.00012926,0.00012852,0.00013404,0.00013416,0.00013406,0.000133,0.00013278,0.00016242,0.00016322,0.00016018,0.00016112,0.0001582,0.00016504,0.0001685,0.00016456,0.00016538,0.00016428
678,0.0005552,0.000561,0.0005558,0.0005572,0.0005584,0.0005856,0.0005822,0.0005816,0.0005922,0.0005874,0.0007112,0.0007158,0.0007136,0.0007154,0.000717,0.0007438,0.0007472,0.0007496,0.0007466,0.0007502,0.00012254,0.0001221,0.00012354,0.00012346,0.00012102,0.00012702,0.0001282,0.000127,0.00012678,0.00012622,0.00015576,0.00015796,0.00015394,0.00015484,0.00015162,0.0001556,0.00016308,0.00015834,0.00015992,0.00015532
680,0.000356,0.0003606,0.0003536,0.000358,0.000356,0.0003788,0.000377,0.0003728,0.000382,0.000377,0.0004628,0.0004668,0.0004694,0.0004666,0.0004726,0.0004868,0.0004896,0.0004906,0.0004876,0.0004894,0.00011828,0.0001169,0.00011966,0.00011978,0.00011794,0.00012192,0.0001233,0.00012224,0.0001218,0.00012144,0.00014962,0.0001537,0.00015166,0.00015254,0.00014814,0.00015136,0.0001587,0.00015488,0.0001542,0.00015256
682,0.000227,0.00023,0.000225,0.0002276,0.000226,0.0002354,0.000239,0.0002302,0.0002404,0.0002396,0.0003028,0.0003046,0.0003062,0.0003054,0.0003102,0.000318,0.0003184,0.0003182,0.000314,0.0003176,0.00011622,0.00011484,0.00011746,0.00011676,0.00011586,0.0001197,0.00012176,0.0001185,0.00011926,0.00012068,0.00015434,0.000154,0.00015172,0.00015242,0.00014614,0.0001526,0.00015906,0.00015524,0.0001559,0.00014764
684,0.0001679,0.00017108,0.00017274,0.00016546,0.00016828,0.00017612,0.00017536,0.00016954,0.00017794,0.0001752,0.0002266,0.0002334,0.000231,0.0002282,0.0002338,0.000235,0.0002366,0.000238,0.0002336,0.0002366,0.00011394,0.00011288,0.00011604,0.00011506,0.00011286,0.00011726,0.00011824,0.00011532,0.00011534,0.00011674,0.00015028,0.00015096,0.00015022,0.0001463,0.00014516,0.00015232,0.00015794,0.00015278,0.00015142,0.00013992
686,0.00014916,0.00015458,0.00015438,0.00014844,0.00014768,0.0001582,0.0001565,0.00015448,0.00015732,0.00016062,0.0002012,0.0002054,0.0002046,0.0002012,0.0002088,0.000207,0.0002082,0.0002072,0.0002046,0.000208,0.00010928,0.0001083,0.00011128,0.0001105,0.00010946,0.00011214,0.00011172,0.0001113,0.00011038,0.00011138,0.00014322,0.00014676,0.00014524,0.00014094,0.00014138,0.00014856,0.00015406,0.00014258,0.00015002,0.00014232
688,0.00013982,0.00014506,0.0001458,0.00013948,0.00014118,0.0001434,0.00014628,0.00014322,0.00014706,0.00015094,0.00018844,0.00018708,0.00018982,0.00018534,0.00019286,0.00019136,0.00019062,0.00019066,0.00018758,0.00018994,0.0001045,0.00010284,0.00010634,0.00010616,0.00010452,0.00010696,0.0001055,0.00010466,0.0001045,0.00010582,0.00014398,0.0001435,0.00014156,0.0001359,0.0001368,0.00014194,0.00015048,0.00013992,0.00014256,0.00013758
690,0.0001325,0.00013766,0.00014192,0.00013662,0.0001341,0.00013616,0.0001383,0.0001367,0.0001424,0.00014254,0.00017498,0.00017464,0.0001739,0.00017222,0.00018054,0.00017588,0.00017922,0.0001774,0.00017406,0.00017596,9.886e-05,9.766e-05,0.00010128,0.00010038,9.766e-05,0.00010024,9.894e-05,9.77e-05,9.864e-05,9.996e-05,0.00013604,0.00013844,0.00013702,0.00013112,0.00013118,0.00013706,0.00014242,0.00013358,0.00013304,0.0001313
692,0.00013,0.00012788,0.00012966,0.0001258,0.00012502,0.00012436,0.00012874,0.00012364,0.00013114,0.00013304,0.0001603,0.00016288,0.0001607,0.00015754,0.00016358,0.00016202,0.0001612,0.00015968,0.00015798,0.00016222,9.142e-05,8.998e-05,9.524e-05,9.284e-05,9.176e-05,9.29e-05,9.052e-05,9.022e-05,9.146e-05,9.296e-05,0.00012924,0.0001296,0.00012842,0.00012582,0.00012306,0.00012764,0.0001298,0.00012802,0.00012766,0.00012632
694,0.00012014,0.00011976,0.00012366,0.00011908,0.00011734,0.00011604,0.00012022,0.00011798,0.00011756,0.00012334,0.00014508,0.00014808,0.00014538,0.00014254,0.00014946,0.00014886,0.00014724,0.00014534,0.00014672,0.0001486,8.388e-05,8.422e-05,8.966e-05,8.588e-05,8.4e-05,8.592e-05,8.42e-05,8.314e-05,8.442e-05,8.412e-05,0.00012358,0.00012128,0.00012318,0.00011676,0.0001173,0.00012172,0.00012578,0.00012216,0.00012584,0.00011764
696,0.0001136,0.0001069,0.00011568,0.00010958,0.00010772,0.0001058,0.00010956,0.0001085,0.00011298,0.0001166,0.00013174,0.00013662,0.00013258,0.00013198,0.00014004,0.00013644,0.00013338,0.00013434,0.0001342,0.0001367,7.688e-05,7.874e-05,8.292e-05,7.898e-05,7.75e-05,8.004e-05,7.798e-05,7.73e-05,7.806e-05,7.73e-05,0.00011764,0.00011692,0.00011196,0.00011184,0.00011172,0.0001174,0.00011954,0.00011252,0.00011756,0.0001132
698,0.0001088,0.00010102,0.00010802,0.00010388,9.808e-05,9.718e-05,0.0001038,0.00010322,0.00010314,0.0001107,0.00012536,0.00012788,0.00012286,0.00012058,0.0001305,0.00012784,0.0001235,0.00012442,0.00012438,0.00012952,7.328e-05,7.248e-05,7.544e-05,7.428e-05,7.2e-05,7.39e-05,7.27e-05,7.268e-05,7.246e-05,7.306e-05,0.00011362,0.00011132,0.00011018,0.0001061,0.00010808,0.00011274,0.00011676,0.00011106,0.00011208,0.00011188
700,0.00010026,0.00010018,0.00010368,9.896e-05,9.566e-05,9.338e-05,9.812e-05,0.00010044,9.572e-05,0.00010286,0.00011704,0.00011704,0.00011584,0.00011246,0.00011768,0.00011916,0.00011676,0.00011896,0.00011658,0.00012178,6.816e-05,6.742e-05,7.06e-05,6.94e-05,6.768e-05,7.094e-05,6.914e-05,6.544e-05,6.836e-05,6.826e-05,0.0001122,0.00010276,0.00010528,9.936e-05,0.00010746,0.0001059,0.00011028,0.00011266,0.00010506,0.00011286
702,9.502e-05,8.998e-05,9.932e-05,8.918e-05,9.35e-05,8.684e-05,9.318e-05,9.442e-05,8.818e-05,9.662e-05,0.00011256,0.00011304,0.00010612,0.00010554,0.00011386,0.00011274,0.00010522,0.00011078,0.00010984,0.00011382,6.304e-05,6.358e-05,6.584e-05,6.582e-05,6.256e-05,6.308e-05,6.306e-05,6.166e-05,6.292e-05,6.43e-05,0.00010628,0.00010512,0.00010564,9.886e-05,0.00010078,0.00010282,0.00010478,0.0001093,0.00010104,0.00010728
704,9.15e-05,8.478e-05,9.524e-05,8.288e-05,8.984e-05,8.136e-05,8.742e-05,9.164e-05,8.024e-05,9.518e-05,0.00010792,0.00010654,0.00010334,0.00010086,0.00010376,0.00011032,0.0001008,0.00010626,0.00010708,0.00010876,5.812e-05,6.074e-05,6.18e-05,6.078e-05,5.994e-05,6.132e-05,6.05e-05,5.806e-05,5.866e-05,5.966e-05,0.0001043,0.00010008,0.00010216,9.69e-05,9.604e-05,9.706e-05,0.0001003,0.00010514,9.72e-05,0.00010164
706,8.782e-05,8.372e-05,9.084e-05,8.26e-05,8.446e-05,8.186e-05,8.522e-05,8.834e-05,7.664e-05,8.912e-05,0.00010156,0.00010486,9.716e-05,9.78e-05,9.666e-05,0.00010388,9.672e-05,0.0001017,0.00010348,0.00010394,5.514e-05,5.758e-05,5.878e-05,5.684e-05,5.676e-05,5.812e-05,5.81e-05,5.522e-05,5.53e-05,5.566e-05,9.986e-05,9.3e-05,9.418e-05,9.126e-05,9.498e-05,9.7e-05,9.98e-05,9.96e-05,9.244e-05,0.0001001
708,8.706e-05,7.898e-05,8.764e-05,7.788e-05,8.158e-05,7.436e-05,7.914e-05,8.482e-05,7.534e-05,8.562e-05,9.788e-05,9.938e-05,9.446e-05,9.412e-05,9.654e-05,9.996e-05,9.074e-05,9.868e-05,0.00010284,0.00010224,5.19e-05,5.556e-05,5.486e-05,5.522e-05,5.426e-05,5.562e-05,5.508e-05,5.152e-05,5.358e-05,5.428e-05,9.892e-05,9.256e-05,9.758e-05,9.116e-05,9.364e-05,9.882e-05,9.782e-05,9.864e-05,9.648e-05,0.00010016
710,8.422e-05,7.776e-05,8.62e-05,7.712e-05,7.94e-05,7.362e-05,8.572e-05,8.672e-05,7.494e-05,8.764e-05,9.484e-05,9.576e-05,9.12e-05,8.806e-05,9.212e-05,9.778e-05,9.286e-05,9.782e-05,9.666e-05,9.588e-05,4.92e-05,5.134e-05,5.25e-05,5.136e-05,5.328e-05,5.408e-05,5.412e-05,5.02e-05,5.222e-05,5.316e-05,9.248e-05,8.646e-05,9.53e-05,9.212e-05,9.502e-05,9.758e-05,9.222e-05,9.934e-05,9.43e-05,0.00010162
712,7.51e-05,7.486e-05,8.448e-05,7.41e-05,7.694e-05,7.378e-05,7.964e-05,8.426e-05,7.42e-05,8.496e-05,9.222e-05,9.326e-05,8.65e-05,8.712e-05,8.836e-05,9.648e-05,9.066e-05,9.306e-05,9.862e-05,9.38e-05,4.938e-05,5.16e-05,5.086e-05,4.916e-05,5.178e-05,5.394e-05,5.35e-05,4.986e-05,4.924e-05,4.934e-05,9.094e-05,8.412e-05,9.49e-05,8.798e-05,9.386e-05,9.372e-05,9.646e-05,9.706e-05,8.914e-05,9.828e-05
714,7.516e-05,7.052e-05,7.978e-05,6.942e-05,7.368e-05,6.87e-05,7.496e-05,7.858e-05,6.994e-05,8.176e-05,9.176e-05,9.1e-05,8.714e-05,8.536e-05,8.208e-05,9.486e-05,8.458e-05,9.016e-05,9.834e-05,9.154e-05,4.732e-05,5.002e-05,4.786e-05,4.846e-05,5.012e-05,5.182e-05,5.052e-05,4.904e-05,4.798e-05,4.69e-05,9.116e-05,8.624e-05,8.93e-05,8.356e-05,8.862e-05,9.086e-05,8.966e-05,9.83e-05,8.786e-05,9.874e-05
716,7.15e-05,6.822e-05,7.72e-05,6.376e-05,7.466e-05,6.708e-05,6.904e-05,7.272e-05,6.496e-05,7.472e-05,8.896e-05,8.95e-05,8.102e-05,8.25e-05,7.464e-05,8.856e-05,8.344e-05,8.772e-05,9.82e-05,8.798e-05,4.48e-05,4.644e-05,4.502e-05,4.538e-05,4.734e-05,4.948e-05,4.994e-05,4.702e-05,4.52e-05,4.456e-05,8.718e-05,7.648e-05,8.74e-05,7.886e-05,8.57e-05,9.224e-05,8.668e-05,9.726e-05,7.89e-05,9.486e-05
718,6.648e-05,6.32e-05,6.78e-05,6.544e-05,6.722e-05,6.598e-05,6.866e-05,6.804e-05,6.054e-05,6.854e-05,8.32e-05,8.64e-05,7.544e-05,7.756e-05,7.81e-05,8.98e-05,7.9e-05,8.496e-05,9.178e-05,8.576e-05,4.072e-05,4.534e-05,4.104e-05,4.182e-05,4.664e-05,4.726e-05,4.432e-05,4.614e-05,4.154e-05,4.196e-05,8.662e-05,7.518e-05,7.852e-05,7.6e-05,8.294e-05,7.796e-05,8.628e-05,9.064e-05,7.632e-05,8.852e-05
720,6.032e-05,5.82e-05,6.156e-05,5.814e-05,6.638e-05,5.616e-05,6.054e-05,6.594e-05,5.506e-05,6.464e-05,8.014e-05,8.488e-05,7.24e-05,7.246e-05,7.484e-05,8.18e-05,7.672e-05,8.244e-05,8.644e-05,7.97e-05,3.902e-05,4.24e-05,3.808e-05,4.012e-05,4.326e-05,4.34e-05,4.172e-05,4.2e-05,4.05e-05,3.868e-05,7.94e-05,7.254e-05,7.998e-05,7.784e-05,7.924e-05,8.224e-05,8.258e-05,8.664e-05,7.076e-05,8.446e-05
722,5.852e-05,5.748e-05,5.722e-05,5.04e-05,6.634e-05,5.682e-05,5.902e-05,6.016e-05,4.958e-05,6.06e-05,7.648e-05,7.914e-05,7.004e-05,7.094e-05,7.03e-05,7.778e-05,7.084e-05,7.54e-05,8.366e-05,7.74e-05,3.762e-05,3.922e-05,3.782e-05,3.812e-05,4.1e-05,4.19e-05,4.108e-05,3.916e-05,3.82e-05,3.69e-05,7.888e-05,6.506e-05,7.27e-05,7.254e-05,7.222e-05,7.492e-05,7.758e-05,8.45e-05,6.474e-05,7.736e-05
724,5.498e-05,5.402e-05,5.642e-05,4.9e-05,6.456e-05,5.578e-05,4.798e-05,5.314e-05,4.552e-05,6.056e-05,7.31e-05,7.868e-05,6.742e-05,6.714e-05,6.636e-05,7.536e-05,7.032e-05,7.624e-05,7.446e-05,7.784e-05,3.524e-05,3.636e-05,3.612e-05,3.652e-05,3.956e-05,4.07e-05,3.992e-05,3.976e-05,3.72e-05,3.536e-05,7.302e-05,6.804e-05,6.968e-05,7.442e-05,6.832e-05,6.926e-05,7.802e-05,8.086e-05,6.368e-05,7.448e-05
726,5.61e-05,5.34e-05,5.204e-05,4.354e-05,6.116e-05,5.396e-05,4.486e-05,5.476e-05,3.596e-05,5.164e-05,7.418e-05,7.786e-05,6.668e-05,6.8e-05,6.14e-05,7.048e-05,6.824e-05,7.09e-05,7.602e-05,7.332e-05,3.412e-05,3.532e-05,3.444e-05,3.69e-05,3.968e-05,4.092e-05,3.982e-05,4.026e-05,3.458e-05,3.456e-05,7.272e-05,6.372e-05,6.458e-05,6.696e-05,7.448e-05,6.748e-05,8.246e-05,8.372e-05,6.636e-05,7.636e-05
728,5.356e-05,5.256e-05,4.46e-05,4.986e-05,6.154e-05,5.45e-05,4.04e-05,5.006e-05,4.08e-05,4.932e-05,7.372e-05,8.152e-05,6.766e-05,7.18e-05,6.448e-05,6.558e-05,7.36e-05,7.12e-05,7.428e-05,7.068e-05,3.428e-05,3.732e-05,3.642e-05,3.476e-05,4.016e-05,4.178e-05,4.194e-05,3.898e-05,3.524e-05,3.36e-05,7.368e-05,6.568e-05,6.466e-05,6.368e-05,6.388e-05,6.542e-05,6.454e-05,7.784e-05,5.51e-05,6.632e-05
730,5.562e-05,5.074e-05,4.06e-05,4.41e-05,5.73e-05,4.848e-05,3.59e-05,4.356e-05,4.324e-05,5.478e-05,7.302e-05,7.666e-05,6.624e-05,7.026e-05,6.708e-05,7.1e-05,7.288e-05,6.924e-05,7.396e-05,7.134e-05,3.394e-05,3.794e-05,3.61e-05,3.514e-05,4.156e-05,4.044e-05,4.114e-05,4.048e-05,3.586e-05,3.596e-05,7.606e-05,6.866e-05,6.916e-05,6.804e-05,6.064e-05,6.158e-05,7.296e-05,7.6e-05,5.29e-05,7.144e-05
732,5.262e-05,4.938e-05,3.71e-05,3.952e-05,5.734e-05,5.246e-05,3.946e-05,5.042e-05,3.92e-05,5.598e-05,7.304e-05,8.196e-05,7.028e-05,7.068e-05,6.456e-05,6.902e-05,6.958e-05,6.96e-05,7.214e-05,6.466e-05,3.638e-05,3.918e-05,3.746e-05,3.55e-05,4.138e-05,4.116e-05,4.11e-05,4.122e-05,3.78e-05,3.518e-05,7.552e-05,6.558e-05,7.216e-05,6.418e-05,6.036e-05,6.588e-05,7.608e-05,8.774e-05,5.23e-05,7.53e-05
734,4.984e-05,5.026e-05,3.426e-05,3.878e-05,5.24e-05,4.528e-05,3.802e-05,4.728e-05,3.796e-05,4.676e-05,6.82e-05,7.936e-05,6.436e-05,6.556e-05,5.97e-05,6.742e-05,6.478e-05,6.614e-05,6.87e-05,6.16e-05,3.386e-05,3.622e-05,3.552e-05,3.256e-05,4.03e-05,3.908e-05,4.14e-05,4.06e-05,3.674e-05,3.23e-05,7.902e-05,5.908e-05,6.642e-05,6.48e-05,6.334e-05,6.56e-05,7.776e-05,7.454e-05,5.774e-05,6.736e-05
736,4.242e-05,3.864e-05,2.85e-05,3.32e-05,4.256e-05,3.944e-05,3.33e-05,3.102e-05,2.752e-05,3.724e-05,6.67e-05,7.028e-05,6.02e-05,6.388e-05,6.418e-05,6.168e-05,6.36e-05,5.856e-05,6.278e-05,5.522e-05,3.126e-05,3.482e-05,3.31e-05,3.024e-05,3.53e-05,3.276e-05,3.92e-05,3.638e-05,3.296e-05,2.898e-05,5.956e-05,6.424e-05,6.42e-05,5.838e-05,7.23e-05,4.434e-05,5.714e-05,5.608e-05,4.628e-05,6.086e-05
738,4.08e-05,3.874e-05,2.232e-05,2.502e-05,3.666e-05,3.148e-05,2.434e-05,2.526e-05,2.524e-05,2.71e-05,5.918e-05,6.192e-05,5.374e-05,6.176e-05,5.716e-05,5.21e-05,6.104e-05,5.688e-05,6.112e-05,5.03e-05,2.686e-05,2.93e-05,2.846e-05,2.536e-05,3.114e-05,3.058e-05,3.226e-05,3.104e-05,2.982e-05,2.758e-05,5.52e-05,6.088e-05,5.358e-05,5.32e-05,6.048e-05,3.818e-05,5.5e-05,5.562e-05,3.782e-05,6.19e-05
740,3.28e-05,3.366e-05,1.4178e-05,2.254e-05,3.118e-05,3.386e-05,2.094e-05,2.66e-05,1.98e-05,2.618e-05,6.096e-05,5.704e-05,4.626e-05,5.728e-05,5.302e-05,4.812e-05,6.124e-05,4.878e-05,4.966e-05,4.454e-05,2.412e-05,2.616e-05,2.724e-05,2.132e-05,2.626e-05,2.61e-05,3.068e-05,2.706e-05,2.794e-05,2.184e-05,5.082e-05,5.59e-05,4.678e-05,4.772e-05,5.09e-05,3.528e-05,4.638e-05,5.382e-05,3.03e-05,4.892e-05
742,2.82e-05,2.67e-05,2.854e-06,1.7288e-05,2.816e-05,2.932e-05,1.8846e-05,3.016e-05,1.4724e-05,1.5656e-05,5.822e-05,5.824e-05,4.542e-05,5.442e-05,5.256e-05,4.618e-05,5.992e-05,4.846e-05,4.586e-05,4.156e-05,2.118e-05,2.398e-05,2.312e-05,2.13e-05,2.504e-05,2.164e-05,2.654e-05,2.712e-05,2.336e-05,2.124e-05,4.72e-05,5.516e-05,4.32e-05,4.658e-05,4.702e-05,3.072e-05,5.272e-05,3.526e-05,3.022e-05,5.316e-05
744,2.876e-05,2.574e-05,0,9.958e-06,2.082e-05,3.114e-05,1.6578e-05,2.73e-05,1.3444e-05,1.6192e-05,5.074e-05,4.914e-05,4.106e-05,5.7e-05,4.738e-05,4.518e-05,5.382e-05,4.602e-05,4.272e-05,3.954e-05,1.655e-05,2.294e-05,2.074e-05,2.032e-05,2.154e-05,1.879e-05,2.356e-05,2.378e-05,2.066e-05,1.8184e-05,4.524e-05,4.348e-05,3.948e-05,3.396e-05,3.782e-05,2.868e-05,5.192e-05,4.204e-05,1.7904e-05,4.652e-05
746,2.598e-05,2.066e-05,0,1.4016e-05,2.062e-05,2.706e-05,5.842e-06,2.368e-05,1.5246e-05,1.4252e-05,4.286e-05,4.22e-05,4.122e-05,5.184e-05,4.524e-05,4.184e-05,5.184e-05,4.458e-05,4.2e-05,3.8e-05,1.7956e-05,1.9256e-05,2.028e-05,1.879e-05,2.144e-05,1.7654e-05,1.9696e-05,2.268e-05,1.9234e-05,1.689e-05,2.76e-05,5.128e-05,4.262e-05,5.354e-05,4.616e-05,2.586e-05,4.32e-05,3.726e-05,2.348e-05,4.476e-05
748,2.052e-05,2.19e-05,0,8.122e-06,2.19e-05,1.994e-05,3.456e-06,2.474e-05,1.248e-05,4.066e-06,3.95e-05,4.226e-05,3.364e-05,5.306e-05,4.652e-05,4.322e-05,4.9e-05,4.414e-05,3.86e-05,3.39e-05,1.7148e-05,1.771e-05,2.04e-05,1.8004e-05,1.8402e-05,1.5744e-05,2.064e-05,1.9618e-05,1.7408e-05,1.4028e-05,3.364e-05,4.9e-05,3.692e-05,4.206e-05,4.816e-05,2.362e-05,2.188e-05,3.068e-05,2.806e-05,3.782e-05
750,1.9544e-05,3.298e-05,0,5.826e-06,2.124e-05,1.9232e-05,1.7188e-06,1.9088e-05,1.4242e-05,0,4.362e-05,3.678e-05,3.554e-05,5.048e-05,4.776e-05,4.326e-05,4.826e-05,4.036e-05,3.8e-05,3.344e-05,1.313e-05,1.7036e-05,2.09e-05,1.5554e-05,1.703e-05,1.2602e-05,2.092e-05,2.238e-05,1.9566e-05,1.3902e-05,2.744e-05,5.414e-05,3.038e-05,2.622e-05,3.554e-05,1.8604e-05,2.95e-05,2.338e-05,2.41e-05,3.004e-05
752,1.485e-05,2.438e-05,6.382e-07,3.83e-06,4.286e-06,2.686e-05,1.2548e-05,1.8144e-05,1.5502e-05,2.566e-07,4.848e-05,3.302e-05,4.04e-05,5.34e-05,4.696e-05,4.368e-05,4.966e-05,4.04e-05,3.436e-05,3.574e-05,1.5844e-05,1.7476e-05,2.114e-05,1.8192e-05,1.4434e-05,1.7318e-05,2.084e-05,2.016e-05,2.066e-05,1.7316e-05,1.6746e-05,4.272e-05,1.8588e-05,3.35e-05,3.152e-05,1.2366e-05,3.852e-05,1.1912e-05,3.534e-05,3.426e-05
754,2.052e-05,3.084e-05,5.598e-06,8.644e-06,2.362e-05,3.278e-05,7.998e-06,1.7952e-05,2.138e-05,2.252e-06,4.664e-05,3.552e-05,4.19e-05,5.754e-05,4.942e-05,4.606e-05,5.386e-05,4.024e-05,3.148e-05,3.206e-05,1.4492e-05,1.6914e-05,1.936e-05,1.6174e-05,1.3474e-05,1.8148e-05,1.97e-05,2.194e-05,2.03e-05,1.7818e-05,2.798e-05,4e-05,2.788e-05,2.796e-05,4.074e-05,1.874e-05,2.518e-05,2.004e-05,3.266e-05,4.238e-05
756,2.102e-05,3.726e-05,0,9.828e-06,1.6526e-05,2.484e-05,1.6924e-05,2.028e-05,2.11e-05,0,4.562e-05,2.832e-05,4.534e-05,6.016e-05,4.886e-05,4.788e-05,5.44e-05,4.056e-05,2.372e-05,3.536e-05,1.5756e-05,1.4712e-05,2.146e-05,1.6032e-05,1.3956e-05,1.7934e-05,1.7142e-05,1.7836e-05,2.288e-05,1.7194e-05,2.78e-05,4.72e-05,3.254e-05,4.006e-05,3.562e-05,1.9176e-05,2.634e-05,1.1416e-05,4.324e-05,4.372e-05
758,2.212e-05,3.96e-05,0,1.1886e-05,1.1902e-05,2.17e-05,2.102e-05,2.912e-05,1.8284e-05,0,3.892e-05,2.616e-05,4.298e-05,5.152e-05,5.58e-05,4.166e-05,4.73e-05,4.728e-05,2.98e-05,3.304e-05,1.783e-05,1.5242e-05,2.286e-05,2.016e-05,1.4736e-05,2.068e-05,1.6154e-05,1.9402e-05,2.052e-05,1.9424e-05,2.424e-05,4.422e-05,3.338e-05,3.356e-05,4.284e-05,9.426e-06,2.698e-05,1.5988e-05,5.09e-05,4.296e-05
760,7.756e-06,2.852e-05,2.068e-07,2.138e-05,1.0624e-05,2.436e-05,2.556e-05,3.446e-05,2.536e-05,0,3.92e-05,2.476e-05,3.72e-05,5.922e-05,4.56e-05,4.658e-05,5.298e-05,5.4e-05,3.662e-05,3.37e-05,1.5664e-05,1.9104e-05,2.274e-05,1.6122e-05,1.322e-05,1.8328e-05,1.716e-05,2.006e-05,2.178e-05,1.788e-05,1.6158e-05,5.322e-05,3.89e-05,3.856e-05,4.71e-05,2.474e-05,3.244e-05,6.84e-06,5.588e-05,5.256e-05
762,9.398e-06,2.812e-05,5.172e-06,1.546e-05,6.584e-06,2.422e-05,1.7392e-05,2.32e-05,3.368e-05,0,3.556e-05,9.158e-06,3.56e-05,6.874e-05,4.878e-05,5.596e-05,5.174e-05,4.352e-05,2.912e-05,3.662e-05,1.5086e-05,1.8868e-05,2.176e-05,1.9646e-05,1.7836e-05,1.8502e-05,1.384e-05,2.218e-05,2.188e-05,1.9304e-05,3.064e-05,3.722e-05,3.41e-05,3.616e-05,5.2e-05,2.642e-05,3.976e-05,1.2028e-05,6.136e-05,4.826e-05
764,8.952e-06,3.264e-05,8.922e-06,1.324e-05,1.247e-05,3.86e-05,1.556e-05,3.61e-05,3.492e-05,0,3.836e-05,1.5804e-05,3.564e-05,6.368e-05,5.426e-05,4.28e-05,4.744e-05,4.418e-05,3.506e-05,4.388e-05,1.9882e-05,2.104e-05,2.456e-05,1.7858e-05,1.4668e-05,1.8016e-05,1.5156e-05,2.168e-05,2.386e-05,2.232e-05,2.286e-05,4.56e-05,3.532e-05,5.114e-05,5.036e-05,3.33e-05,3.524e-05,1.8242e-05,7.138e-05,4.824e-05
766,1.357e-05,3.216e-05,1.0874e-05,1.6174e-05,2.312e-05,3.976e-05,2.392e-05,3.152e-05,3.494e-05,0,3.606e-05,2.276e-05,2.862e-05,6.42e-05,4.916e-05,5.446e-05,5.124e-05,4.404e-05,3.126e-05,4.24e-05,1.9164e-05,1.6182e-05,2.598e-05,1.6798e-05,1.5016e-05,2.05e-05,1.3776e-05,2.1e-05,2.948e-05,2.27e-05,2.774e-05,4.59e-05,3.964e-05,5.1e-05,4.872e-05,3.876e-05,3.76e-05,2.128e-05,7.748e-05,5.278e-05
768,2.75e-06,3.94e-05,6.334e-06,2.214e-05,8.668e-06,2.992e-05,2.08e-05,3.672e-05,4.356e-05,0,3.798e-05,2.974e-05,4.102e-05,5.002e-05,5.82e-05,5.58e-05,4.618e-05,3.566e-05,2.274e-05,4.4e-05,2.16e-05,1.4522e-05,2.324e-05,2.046e-05,1.7444e-05,1.847e-05,1.302e-05,2.196e-05,2.298e-05,2.312e-05,3.916e-05,4.814e-05,3.494e-05,6.308e-05,4.89e-05,4.794e-05,2.878e-05,1.6648e-05,8.532e-05,5.368e-05
770,2.14e-06,2.944e-05,2.222e-05,3.494e-05,1.6778e-05,3.73e-05,1.99e-05,3.148e-05,4.32e-05,0,3.372e-05,2.504e-05,3.922e-05,4.94e-05,5.754e-05,5.006e-05,4.586e-05,4.948e-05,3.702e-05,5.22e-05,1.8664e-05,1.5236e-05,2.224e-05,1.9102e-05,1.684e-05,1.8784e-05,1.705e-05,2.252e-05,2.324e-05,2.168e-05,5.536e-05,4.218e-05,5.836e-05,5.376e-05,6.032e-05,4.414e-05,3.988e-05,7.214e-06,9.866e-05,5.156e-05
772,7.522e-06,3.206e-05,2.564e-05,2.596e-05,1.2024e-05,3.686e-05,2.538e-05,3.756e-05,4.456e-05,0,4.034e-05,3.606e-05,3.716e-05,5.546e-05,5.532e-05,5.602e-05,3.958e-05,4.008e-05,3.996e-05,4.498e-05,1.8694e-05,1.2344e-05,2.576e-05,2.192e-05,1.5616e-05,1.63e-05,1.2874e-05,1.8824e-05,2.534e-05,2.136e-05,3.952e-05,5.774e-05,4.38e-05,5.69e-05,5.686e-05,2.89e-05,2.772e-05,6.98e-06,9.732e-05,4.666e-05
774,1.8718e-06,3.462e-05,3.426e-05,3.648e-05,2.424e-05,3.138e-05,1.8902e-05,3.486e-05,4.67e-05,0,3.636e-05,2.684e-05,3.596e-05,4.314e-05,4.716e-05,5.068e-05,2.998e-05,3.888e-05,4.126e-05,4.416e-05,2.222e-05,1.3838e-05,2.348e-05,2.178e-05,1.3458e-05,1.677e-05,1.1244e-05,1.8176e-05,2.814e-05,2.248e-05,3.73e-05,5.378e-05,5.88e-05,5.48e-05,6.472e-05,4.034e-05,2.712e-05,0,9.682e-05,6.438e-05
776,3.02e-05,4.666e-05,4.388e-05,3.564e-05,2.398e-05,3.238e-05,3.328e-05,3.068e-05,6.11e-05,8.942e-06,3.002e-05,2.898e-05,2.088e-05,4.636e-05,3.486e-05,5.298e-05,4.304e-05,4.848e-05,4.372e-05,5.282e-05,1.9184e-05,2.1e-05,2.392e-05,2.102e-05,9.254e-06,1.6108e-05,1.36e-05,1.8422e-05,2.462e-05,2.146e-05,6.06e-05,2.534e-05,6.626e-05,7.094e-05,5.542e-05,5.296e-05,3.598e-05,8.934e-06,0.00013516,6.548e-05
778,1.537e-05,4.188e-05,5.816e-05,2.938e-05,1.4102e-05,4.544e-05,2.356e-05,4.354e-05,4.902e-05,1.6346e-05,2.79e-05,2.646e-05,3.038e-05,3.044e-05,2.668e-05,6.886e-05,3.998e-05,4.83e-05,2.826e-05,3.95e-05,2.388e-05,1.4666e-05,2.15e-05,2.942e-05,1.301e-05,1.4106e-05,1.4058e-05,1.1742e-05,2.596e-05,2.126e-05,6.976e-05,4.414e-05,7.656e-05,6.596e-05,7.418e-05,4.77e-05,4.634e-05,3.894e-05,0.000112,5.236e-05
780,1.9596e-05,3.89e-05,5.954e-05,4.686e-05,4.572e-05,5.174e-05,1.6642e-05,5.282e-05,6.036e-05,8.642e-06,2.702e-05,3.574e-05,3.22e-05,2.736e-05,1.994e-05,6.71e-05,2.676e-05,5.96e-05,3.684e-05,5.032e-05,1.9996e-05,1.6146e-05,2.03e-05,2.538e-05,1.5436e-05,1.4822e-05,1.354e-05,1.842e-05,2.528e-05,2.498e-05,8.39e-05,4.038e-05,6.024e-05,7.738e-05,6.686e-05,5.33e-05,3.786e-05,5.358e-05,8.99e-05,8.472e-05
