Wavelength [nm],Background (Mel),Modulation (Mel),Background (LMS),Modulation (LMS)380,6.252e-06,9.238e-06,8.1e-06,1.033e-05,7.336e-06,1.4312e-05,6.16e-06,1.3974e-05,5.404e-06,8.814e-06,1.335e-05,1.442e-05,1.2504e-05,7.406e-06,1.0016e-05,1.5702e-05,1.3132e-05,8.386e-06,2.22e-05,1.8632e-05,4.422e-06,5.17e-06,3.018e-06,5.752e-06,3.846e-06,8.798e-07,4.822e-06,2.744e-06,4.818e-06,2.99e-06,2.626e-05,1.705e-05,3.408e-05,1.9926e-05,2.906e-05,2.122e-05,1.702e-05,2.846e-05,2.362e-05,2.282e-05
382,5.234e-06,1.1778e-05,7.328e-06,6.542e-06,1.0862e-05,1.5882e-05,5.764e-06,6.914e-06,1.047e-05,8.324e-06,1.3548e-05,1.167e-05,1.0086e-05,8.802e-06,1.256e-05,1.6316e-05,1.4142e-05,5.54e-06,1.3548e-05,1.1966e-05,4.59e-06,6.226e-06,3.752e-06,6.198e-06,2.194e-06,1.9164e-06,2.65e-06,4.242e-06,4.292e-06,3.042e-06,2.79e-05,2.478e-05,3.794e-05,2.338e-05,2.356e-05,9.156e-06,1.6446e-05,3.628e-05,2.408e-05,1.8142e-05
384,4.716e-06,1.0302e-05,7.212e-06,5.358e-06,9.184e-06,1.6884e-05,7.558e-06,4.068e-06,1.459e-05,8.186e-06,1.3162e-05,1.3098e-05,9.274e-06,8.816e-06,1.2192e-05,1.4428e-05,1.3906e-05,9.66e-06,1.6564e-05,1.2094e-05,3.534e-06,6.254e-06,2.446e-06,4.69e-06,1.8946e-06,8.144e-07,2.94e-06,5.576e-06,4.562e-06,3.47e-06,2.858e-05,1.8966e-05,3.476e-05,2.442e-05,2.488e-05,1.122e-05,1.8688e-05,3.346e-05,2.174e-05,2.008e-05
386,5.934e-06,7.106e-06,4.958e-06,9.378e-06,6.814e-06,1.2762e-05,7.982e-06,7.528e-06,1.2112e-05,1.0492e-05,1.373e-05,1.3562e-05,9.208e-06,9.632e-06,1.0518e-05,1.4614e-05,1.5316e-05,9.19e-06,1.8306e-05,1.299e-05,3.196e-06,5.572e-06,3.054e-06,6.134e-06,3.248e-06,1.3776e-06,4.064e-06,4.68e-06,4.448e-06,3.632e-06,2.12e-05,1.8104e-05,3.368e-05,1.988e-05,2.12e-05,1.6292e-05,8.668e-06,3.214e-05,1.9076e-05,1.509e-05
388,4.068e-06,8.128e-06,9.598e-06,8.874e-06,7.39e-06,1.1216e-05,7.242e-06,7.242e-06,1.146e-05,7.974e-06,1.2852e-05,1.453e-05,9.786e-06,1.0604e-05,1.117e-05,1.592e-05,1.453e-05,6.706e-06,1.3984e-05,1.2858e-05,3.042e-06,4.732e-06,2.37e-06,5.532e-06,1.5824e-06,1.151e-06,3.112e-06,4.262e-06,2.712e-06,4.114e-06,2.398e-05,1.8578e-05,2.888e-05,1.9564e-05,2.056e-05,1.4848e-05,5.274e-06,2.922e-05,1.7712e-05,1.4848e-05
390,3.638e-06,8.286e-06,1.1038e-05,6.23e-06,1.2432e-05,1.198e-05,7.864e-06,4.828e-06,1.0026e-05,7.306e-06,1.0086e-05,1.3194e-05,7.696e-06,1.164e-05,1.2548e-05,1.8286e-05,1.4532e-05,7.722e-06,1.023e-05,1.2454e-05,3.734e-06,4.38e-06,2.942e-06,6.092e-06,2.288e-06,1.2222e-06,2.218e-06,4.722e-06,2.892e-06,4.622e-06,2.21e-05,1.9804e-05,2.856e-05,2.294e-05,1.8884e-05,1.6432e-05,1.0084e-05,2.43e-05,2.114e-05,1.6432e-05
392,3.542e-06,5.24e-06,1.2982e-05,7.512e-06,9.772e-06,1.148e-05,9.014e-06,7.658e-06,6.146e-06,9.514e-06,7.794e-06,1.2848e-05,7.496e-06,9.164e-06,1.0534e-05,1.6186e-05,1.3446e-05,9.724e-06,1.0172e-05,1.2226e-05,1.865e-06,4.452e-06,4.392e-06,5.828e-06,2.306e-06,3.332e-06,3.896e-06,4.38e-06,3.61e-06,5.036e-06,2.308e-05,1.444e-05,2.528e-05,1.3984e-05,1.8082e-05,1.9424e-05,1.046e-05,2.824e-05,1.806e-05,1.6116e-05
394,3.456e-06,8.176e-06,9.218e-06,9.446e-06,6.452e-06,1.2512e-05,9.92e-06,7.104e-06,5.414e-06,6.09e-06,1.2532e-05,1.297e-05,8.182e-06,1.0532e-05,1.1576e-05,1.332e-05,1.384e-05,6.444e-06,9.488e-06,1.1926e-05,2.458e-06,4.988e-06,4.112e-06,3.77e-06,2.6e-06,3.196e-06,2.91e-06,2.298e-06,4.072e-06,5.1e-06,1.7694e-05,1.5858e-05,2.288e-05,1.0064e-05,1.7384e-05,2.044e-05,5.226e-06,2.732e-05,1.5372e-05,1.895e-05
396,5.492e-06,9.162e-06,1.3448e-05,5.862e-06,8.614e-06,1.4492e-05,4.568e-06,4.628e-06,7.74e-06,9.092e-06,1.0756e-05,1.3154e-05,1.0928e-05,1.2026e-05,1.2862e-05,1.4084e-05,1.192e-05,9.294e-06,9.996e-06,1.259e-05,3.024e-06,5.83e-06,2.822e-06,4.52e-06,1.7646e-06,5.16e-07,2.546e-06,3.032e-06,4.616e-06,4.498e-06,1.467e-05,2.23e-05,2.326e-05,1.0028e-05,1.1256e-05,2.318e-05,9.176e-06,2.7e-05,1.6218e-05,1.0742e-05
398,8.38e-06,5.594e-06,9.844e-06,9.25e-06,8.602e-06,1.6552e-05,8.31e-06,3.596e-06,1.4196e-05,1.0426e-05,1.027e-05,1.2528e-05,9.598e-06,1.0744e-05,9.462e-06,1.3352e-05,1.3506e-05,7.324e-06,7.882e-06,1.2224e-05,2.664e-06,5.096e-06,3.936e-06,4.056e-06,2.624e-06,3.062e-06,3.194e-06,2.416e-06,3.952e-06,4.222e-06,2.012e-05,1.628e-05,2.582e-05,1.3982e-05,1.4102e-05,2.05e-05,6.816e-06,2.792e-05,1.2414e-05,1.9374e-05
400,5.508e-06,4.708e-06,1.5102e-05,7.374e-06,5.508e-06,1.4866e-05,6.174e-06,5.826e-06,1.0394e-05,8.346e-06,1.195e-05,1.2622e-05,8.728e-06,1.1548e-05,1.1412e-05,1.3898e-05,1.195e-05,7.452e-06,5.64e-06,1.289e-05,2.71e-06,5.636e-06,2.9e-06,2.824e-06,2.384e-06,3.96e-06,3.212e-06,2.16e-06,4.554e-06,4.442e-06,2.14e-05,1.7876e-05,2.388e-05,1.3406e-05,1.176e-05,1.6342e-05,3.454e-06,2.842e-05,1.0818e-05,1.5768e-05
402,6.822e-06,6.822e-06,1.3166e-05,1.0294e-05,4.788e-06,1.054e-05,6.44e-06,6.676e-06,9.574e-06,8.082e-06,1.1394e-05,1.32e-05,9.044e-06,1.3292e-05,9.044e-06,1.3112e-05,1.1032e-05,9.044e-06,7.056e-06,9.496e-06,1.752e-06,4.928e-06,3.14e-06,1.6032e-06,3.614e-06,3.618e-06,2.164e-06,1.3796e-06,3.278e-06,4.078e-06,1.8058e-05,1.3942e-05,2.06e-05,9.506e-06,1.1882e-05,1.6128e-05,7.29e-06,2.728e-05,1.3648e-05,1.5348e-05
404,6.628e-06,6.872e-06,1.086e-05,1.121e-05,7.24e-06,1.104e-05,7.72e-06,5.904e-06,8.64e-06,9.928e-06,1.2e-05,1.0944e-05,1.007e-05,1.1326e-05,8.722e-06,1.2912e-05,1.0228e-05,9.582e-06,7.81e-06,9.832e-06,1.8564e-06,3.59e-06,3.616e-06,1.7336e-06,2.79e-06,3.598e-06,3.244e-06,1.5482e-06,3.224e-06,3.664e-06,1.4934e-05,1.5674e-05,2.136e-05,9.168e-06,1.0672e-05,2.132e-05,9.65e-06,2.542e-05,1.4816e-05,1.577e-05
406,6.118e-06,5.706e-06,9.334e-06,9.804e-06,7.084e-06,1.0742e-05,8.624e-06,6.958e-06,8.838e-06,8.826e-06,1.0972e-05,1.3092e-05,1.0662e-05,9.976e-06,8.67e-06,1.4928e-05,8.98e-06,9.09e-06,5.244e-06,1.0616e-05,1.8214e-06,2.884e-06,3.946e-06,2.208e-06,2.08e-06,3.576e-06,3.184e-06,2.736e-06,3.364e-06,4.304e-06,1.5924e-05,1.4996e-05,2.08e-05,7.906e-06,1.05e-05,1.6804e-05,9.932e-06,2.45e-05,1.0086e-05,1.5474e-05
408,6.632e-06,7.03e-06,1.1276e-05,7.574e-06,6.37e-06,1.0648e-05,6.498e-06,8.57e-06,5.458e-06,1.1154e-05,1.003e-05,1.1742e-05,1.0928e-05,1.1024e-05,8.424e-06,1.5144e-05,8.724e-06,9.426e-06,5.012e-06,8.934e-06,1.6192e-06,2.874e-06,3.402e-06,2.85e-06,2.588e-06,3.846e-06,2.978e-06,2.608e-06,3.338e-06,4.734e-06,1.5986e-05,1.3532e-05,2.196e-05,9.652e-06,9.492e-06,1.735e-05,1.3058e-05,2.288e-05,1.3224e-05,1.427e-05
410,7.502e-06,8.012e-06,1.4286e-05,9.26e-06,7.872e-06,1.3052e-05,9.426e-06,8.476e-06,6.714e-06,1.2396e-05,1.0622e-05,1.3438e-05,8.786e-06,1.3158e-05,1.041e-05,1.33e-05,7.474e-06,1.0236e-05,6.998e-06,6.756e-06,2.358e-06,3.602e-06,3.51e-06,2.468e-06,3.178e-06,3.674e-06,1.6248e-06,1.6966e-06,3.804e-06,3.982e-06,1.4348e-05,1.3396e-05,2.042e-05,1.3026e-05,1.5752e-05,1.839e-05,1.434e-05,2.122e-05,1.3292e-05,1.6708e-05
412,9.692e-06,8.798e-06,1.6054e-05,1.0534e-05,6.276e-06,1.4066e-05,1.056e-05,7.18e-06,1.011e-05,1.41e-05,1.0328e-05,1.2542e-05,1.14e-05,1.1746e-05,1.0904e-05,1.2856e-05,1.1348e-05,1.1544e-05,5.092e-06,5.654e-06,3.106e-06,2.914e-06,4.796e-06,1.3624e-06,2.714e-06,2.764e-06,2.144e-06,2.222e-06,3.434e-06,4.114e-06,1.9066e-05,2e-05,2.076e-05,1.3958e-05,1.5786e-05,2.158e-05,1.8558e-05,2.368e-05,1.7794e-05,1.8358e-05
414,1.8078e-05,1.7416e-05,2.406e-05,2.1e-05,1.7582e-05,1.9538e-05,1.4062e-05,1.4842e-05,1.7282e-05,1.6688e-05,1.4034e-05,1.5984e-05,1.2732e-05,1.541e-05,1.3182e-05,1.3284e-05,9.532e-06,1.3258e-05,7.804e-06,7.48e-06,3.018e-06,2.382e-06,2.978e-06,2.61e-06,3.028e-06,4.282e-06,2.766e-06,2.25e-06,3.51e-06,4.806e-06,3.304e-05,3.146e-05,3.248e-05,2.778e-05,2.854e-05,3.19e-05,2.728e-05,3.192e-05,2.406e-05,2.886e-05
416,4.374e-05,4.228e-05,4.818e-05,4.404e-05,4.168e-05,4.036e-05,3.572e-05,3.66e-05,3.96e-05,4.006e-05,1.843e-05,1.9772e-05,1.8096e-05,2.1e-05,1.7202e-05,1.8542e-05,1.6196e-05,1.5864e-05,1.1728e-05,1.2622e-05,3.02e-06,3.066e-06,3.742e-06,2.996e-06,3.338e-06,4.608e-06,4.238e-06,3.502e-06,3.578e-06,4.474e-06,6.3e-05,6.3e-05,6.378e-05,5.83e-05,6.124e-05,5.63e-05,5.918e-05,6.224e-05,5.208e-05,5.706e-05
418,9.19e-05,8.962e-05,9.626e-05,9.372e-05,8.848e-05,8.424e-05,8.178e-05,7.988e-05,8.41e-05,8.396e-05,3.004e-05,3.162e-05,2.988e-05,3.24e-05,3.168e-05,3.088e-05,2.826e-05,2.602e-05,2.296e-05,2.42e-05,4.24e-06,4.226e-06,4.936e-06,3.328e-06,4.52e-06,5.202e-06,4.508e-06,3.934e-06,4.378e-06,5.276e-06,0.00013022,0.00012956,0.00012858,0.00012408,0.00012824,0.00011722,0.00011692,0.00011994,0.00011418,0.00011746
420,0.00016632,0.0001665,0.0001703,0.00016662,0.0001624,0.0001548,0.0001482,0.00015198,0.00015308,0.00015726,4.918e-05,4.91e-05,5.056e-05,5.136e-05,5.206e-05,4.764e-05,4.564e-05,4.578e-05,4.108e-05,4.276e-05,5.202e-06,4.684e-06,6.006e-06,4.128e-06,6.808e-06,6.008e-06,5.094e-06,4.858e-06,5.244e-06,6.532e-06,0.0002358,0.0002336,0.0002336,0.0002312,0.0002328,0.0002156,0.0002158,0.0002146,0.0002152,0.000216
422,0.0002564,0.0002556,0.000256,0.0002532,0.0002502,0.0002404,0.0002348,0.0002348,0.000237,0.0002408,7.168e-05,7.122e-05,7.472e-05,7.362e-05,7.296e-05,6.852e-05,6.652e-05,6.75e-05,6.47e-05,6.352e-05,7.424e-06,6.292e-06,7.73e-06,6.654e-06,8.596e-06,7.52e-06,7.19e-06,7.008e-06,7.624e-06,7.454e-06,0.000376,0.0003778,0.0003776,0.0003748,0.0003778,0.0003512,0.0003522,0.0003516,0.0003518,0.0003514
424,0.0003432,0.0003384,0.0003408,0.0003388,0.0003388,0.0003248,0.0003236,0.0003198,0.0003206,0.000325,9.338e-05,9.292e-05,9.456e-05,9.504e-05,9.384e-05,8.798e-05,8.97e-05,8.63e-05,8.696e-05,8.536e-05,1.0874e-05,9.048e-06,9.764e-06,8.372e-06,1.0536e-05,9.596e-06,8.95e-06,9.744e-06,9.556e-06,9.516e-06,0.0005588,0.000564,0.0005598,0.0005538,0.0005578,0.0005254,0.0005276,0.0005256,0.0005272,0.0005278
426,0.0004226,0.0004228,0.0004216,0.0004222,0.0004176,0.0004018,0.0004016,0.0004046,0.0004028,0.0004056,0.0001167,0.00011478,0.00011538,0.00011874,0.00011684,0.000109,0.0001095,0.0001101,0.0001073,0.00010702,1.3136e-05,1.1566e-05,1.3258e-05,1.1662e-05,1.3656e-05,1.3024e-05,1.2428e-05,1.2054e-05,1.23e-05,1.3048e-05,0.000784,0.0007852,0.000783,0.0007834,0.0007844,0.0007464,0.000748,0.0007422,0.0007448,0.0007456
428,0.0004968,0.0004942,0.0004944,0.0004912,0.0004892,0.0004766,0.0004738,0.0004742,0.000471,0.0004768,0.00013466,0.000136,0.00013618,0.0001385,0.00013608,0.00013086,0.00013192,0.00013086,0.00012746,0.00012822,1.7242e-05,1.474e-05,1.5856e-05,1.5314e-05,1.6798e-05,1.6158e-05,1.5516e-05,1.4966e-05,1.557e-05,1.6008e-05,0.0010284,0.0010332,0.0010304,0.0010302,0.0010298,0.0009828,0.0009848,0.0009818,0.0009804,0.0009856
430,0.0005426,0.0005414,0.0005412,0.0005396,0.0005384,0.000529,0.0005244,0.0005264,0.0005256,0.000529,0.00014958,0.0001495,0.00014862,0.00015114,0.00014818,0.00014388,0.0001454,0.00014666,0.0001434,0.00014268,2.016e-05,1.9306e-05,1.9672e-05,1.9016e-05,2.078e-05,1.944e-05,1.925e-05,1.9504e-05,1.9184e-05,1.9936e-05,0.0012316,0.001235,0.0012308,0.0012288,0.001232,0.0011888,0.0011914,0.0011864,0.0011886,0.0011884
432,0.0005452,0.0005432,0.0005438,0.0005434,0.000541,0.000537,0.0005364,0.0005376,0.000538,0.0005406,0.00015104,0.00015142,0.00015072,0.0001533,0.00015224,0.0001478,0.00015066,0.00015158,0.00014794,0.00014838,2.314e-05,2.24e-05,2.256e-05,2.196e-05,2.354e-05,2.294e-05,2.24e-05,2.334e-05,2.298e-05,2.322e-05,0.0013386,0.0013412,0.0013412,0.0013382,0.001342,0.001312,0.0013154,0.0013094,0.0013126,0.00131
434,0.0004794,0.0004792,0.0004776,0.0004782,0.0004762,0.000482,0.0004824,0.000482,0.0004824,0.0004858,0.00013628,0.00013658,0.00013848,0.00013952,0.00013796,0.0001371,0.00013772,0.00013868,0.00013662,0.00013798,2.572e-05,2.508e-05,2.474e-05,2.438e-05,2.578e-05,2.554e-05,2.512e-05,2.566e-05,2.614e-05,2.574e-05,0.0013314,0.0013356,0.0013368,0.0013342,0.001338,0.001321,0.0013258,0.0013178,0.001322,0.0013204
436,0.0003532,0.0003514,0.0003502,0.0003502,0.0003502,0.0003628,0.0003652,0.000362,0.0003654,0.0003648,0.0001067,0.00010718,0.00010892,0.00011022,0.00010818,0.00010792,0.00011152,0.00011006,0.00010932,0.00010964,2.776e-05,2.756e-05,2.712e-05,2.688e-05,2.826e-05,2.766e-05,2.752e-05,2.756e-05,2.76e-05,2.716e-05,0.0012294,0.001234,0.0012312,0.001229,0.0012354,0.0012306,0.001233,0.0012248,0.0012324,0.0012298
438,0.0002148,0.000211,0.0002088,0.0002066,0.0002088,0.0002222,0.000222,0.000222,0.0002238,0.0002238,7.272e-05,7.406e-05,7.59e-05,7.73e-05,7.478e-05,7.402e-05,7.704e-05,7.672e-05,7.528e-05,7.68e-05,3.022e-05,2.928e-05,2.854e-05,2.872e-05,2.95e-05,2.968e-05,2.896e-05,2.96e-05,2.956e-05,2.91e-05,0.0010614,0.0010628,0.0010636,0.0010626,0.0010686,0.00107,0.0010724,0.0010632,0.0010752,0.0010702
440,0.00011012,0.00010942,0.0001066,0.00010466,0.00010658,0.00011252,0.00011176,0.0001113,0.00011258,0.00011502,5.09e-05,5.296e-05,5.21e-05,5.332e-05,5.322e-05,5.012e-05,5.21e-05,5.296e-05,5.172e-05,5.3e-05,3.228e-05,3.148e-05,3.056e-05,3.072e-05,3.176e-05,3.186e-05,3.02e-05,3.098e-05,3.076e-05,3.072e-05,0.0008428,0.0008468,0.0008462,0.0008454,0.00085,0.0008562,0.000855,0.0008514,0.0008584,0.0008574
442,6.722e-05,6.546e-05,6.358e-05,6.212e-05,6.294e-05,6.6e-05,6.244e-05,6.188e-05,6.302e-05,6.34e-05,4.36e-05,4.464e-05,4.504e-05,4.642e-05,4.49e-05,4.216e-05,4.392e-05,4.402e-05,4.266e-05,4.422e-05,3.32e-05,3.306e-05,3.26e-05,3.232e-05,3.33e-05,3.232e-05,3.188e-05,3.21e-05,3.17e-05,3.188e-05,0.0005726,0.0005774,0.0005806,0.0005772,0.0005794,0.0005934,0.0005956,0.0005888,0.0005984,0.0005956
444,5.764e-05,5.772e-05,5.584e-05,5.352e-05,5.644e-05,5.414e-05,5.29e-05,5.33e-05,5.258e-05,5.506e-05,4.52e-05,4.446e-05,4.564e-05,4.684e-05,4.622e-05,4.078e-05,4.426e-05,4.368e-05,4.322e-05,4.298e-05,3.504e-05,3.53e-05,3.424e-05,3.404e-05,3.488e-05,3.42e-05,3.368e-05,3.43e-05,3.384e-05,3.368e-05,0.0003462,0.0003466,0.0003532,0.0003492,0.0003534,0.0003654,0.0003654,0.0003604,0.0003696,0.0003654
446,5.914e-05,5.84e-05,5.69e-05,5.464e-05,5.518e-05,5.45e-05,5.366e-05,5.48e-05,5.306e-05,5.364e-05,4.754e-05,4.798e-05,4.828e-05,4.986e-05,4.78e-05,4.412e-05,4.618e-05,4.642e-05,4.636e-05,4.67e-05,3.742e-05,3.806e-05,3.656e-05,3.66e-05,3.8e-05,3.624e-05,3.598e-05,3.724e-05,3.64e-05,3.58e-05,0.00019338,0.0001925,0.00019888,0.00019618,0.00019792,0.0002028,0.0002034,0.00019796,0.0002068,0.0002026
448,6.456e-05,6.218e-05,6.022e-05,5.824e-05,5.898e-05,5.696e-05,5.716e-05,5.636e-05,5.774e-05,5.788e-05,5.126e-05,5.204e-05,5.172e-05,5.258e-05,5.248e-05,4.848e-05,5.05e-05,5.17e-05,4.962e-05,5.106e-05,4.082e-05,4.164e-05,4.026e-05,4.018e-05,4.146e-05,3.97e-05,4e-05,4.068e-05,3.954e-05,3.956e-05,0.0001281,0.00012654,0.00013084,0.00013162,0.00013254,0.00012884,0.0001318,0.00012486,0.00013354,0.00012954
450,6.874e-05,6.62e-05,6.378e-05,6.418e-05,6.64e-05,6.19e-05,6.312e-05,6.148e-05,6.25e-05,6.324e-05,5.664e-05,5.562e-05,5.632e-05,5.816e-05,5.768e-05,5.154e-05,5.514e-05,5.546e-05,5.448e-05,5.584e-05,4.572e-05,4.652e-05,4.486e-05,4.474e-05,4.588e-05,4.428e-05,4.52e-05,4.498e-05,4.44e-05,4.378e-05,0.00011282,0.00011198,0.00011646,0.00011786,0.000118,0.00011246,0.0001141,0.00010658,0.00011658,0.00011356
452,6.994e-05,6.734e-05,6.738e-05,6.866e-05,7.014e-05,6.494e-05,6.626e-05,6.488e-05,6.394e-05,6.656e-05,6.044e-05,5.95e-05,5.894e-05,6.05e-05,6.112e-05,5.684e-05,6.026e-05,5.868e-05,5.812e-05,6.048e-05,4.966e-05,5.004e-05,4.794e-05,4.91e-05,4.988e-05,4.804e-05,4.806e-05,4.846e-05,4.84e-05,4.768e-05,0.00011142,0.00011216,0.00011726,0.00011408,0.00011852,0.0001076,0.000109,0.00010342,0.00011402,0.00010974
454,7.202e-05,6.882e-05,6.634e-05,6.58e-05,7.01e-05,6.532e-05,6.736e-05,6.64e-05,6.584e-05,6.684e-05,6.194e-05,6.07e-05,6.114e-05,6.276e-05,6.174e-05,5.866e-05,5.952e-05,6.038e-05,5.918e-05,6.254e-05,5.176e-05,5.19e-05,5.004e-05,5.114e-05,5.166e-05,4.988e-05,5.016e-05,5.06e-05,5.032e-05,4.996e-05,0.00011106,0.00011338,0.00011592,0.00011472,0.00011702,0.00010988,0.00011044,0.00010614,0.00011514,0.00010904
456,7.334e-05,6.962e-05,7e-05,6.85e-05,7.348e-05,6.79e-05,6.762e-05,6.694e-05,6.654e-05,6.708e-05,6.56e-05,6.324e-05,6.442e-05,6.594e-05,6.49e-05,6.026e-05,6.346e-05,6.314e-05,6.516e-05,6.458e-05,5.396e-05,5.458e-05,5.346e-05,5.438e-05,5.498e-05,5.24e-05,5.276e-05,5.38e-05,5.218e-05,5.326e-05,0.0001135,0.00011308,0.00011848,0.00011564,0.00011642,0.00010982,0.00011064,0.00010558,0.00011508,0.00011102
458,7.722e-05,7.146e-05,7.234e-05,7.29e-05,7.56e-05,7.24e-05,7.224e-05,7.108e-05,7.07e-05,7.014e-05,7.054e-05,6.762e-05,6.634e-05,7.044e-05,6.962e-05,6.57e-05,6.724e-05,6.868e-05,6.78e-05,7.068e-05,5.824e-05,5.93e-05,5.738e-05,5.952e-05,5.842e-05,5.694e-05,5.67e-05,5.824e-05,5.672e-05,5.746e-05,0.00011664,0.00011594,0.00012182,0.00011664,0.0001232,0.00011222,0.00011236,0.00010794,0.0001161,0.00011494
460,8.026e-05,7.68e-05,7.712e-05,7.702e-05,8.012e-05,7.44e-05,7.596e-05,7.588e-05,7.464e-05,7.51e-05,7.478e-05,7.21e-05,7.168e-05,7.352e-05,7.502e-05,6.99e-05,7.128e-05,7.15e-05,7.106e-05,7.516e-05,6.244e-05,6.406e-05,6.238e-05,6.396e-05,6.272e-05,6.154e-05,6.064e-05,6.238e-05,6.132e-05,6.202e-05,0.00012082,0.00011988,0.00012372,0.00012234,0.00012534,0.00011478,0.00011768,0.00011008,0.00011892,0.00011638
462,8.626e-05,8.09e-05,8.066e-05,8.056e-05,8.404e-05,7.914e-05,8.126e-05,8.008e-05,7.854e-05,8.152e-05,7.97e-05,7.716e-05,7.702e-05,7.958e-05,7.994e-05,7.466e-05,7.562e-05,7.554e-05,7.696e-05,7.952e-05,6.66e-05,6.858e-05,6.706e-05,6.808e-05,6.728e-05,6.566e-05,6.594e-05,6.662e-05,6.582e-05,6.64e-05,0.0001231,0.0001244,0.00012752,0.00012616,0.00012788,0.00011968,0.00012186,0.00011692,0.00012314,0.00011934
464,8.912e-05,8.454e-05,8.394e-05,8.522e-05,8.798e-05,8.29e-05,8.696e-05,8.448e-05,8.32e-05,8.542e-05,8.636e-05,8.238e-05,8.372e-05,8.618e-05,8.544e-05,8.098e-05,8.142e-05,7.974e-05,8.324e-05,8.586e-05,7.194e-05,7.314e-05,7.14e-05,7.228e-05,7.212e-05,7.014e-05,7.046e-05,7.096e-05,7.042e-05,7.08e-05,0.0001268,0.00012918,0.00013168,0.00012948,0.0001324,0.00012388,0.00012364,0.00012362,0.00012504,0.00012378
466,9.15e-05,9.074e-05,9e-05,8.918e-05,9.318e-05,8.788e-05,9.05e-05,9.014e-05,8.994e-05,8.8e-05,9.342e-05,8.858e-05,8.978e-05,9.168e-05,9.162e-05,8.756e-05,8.854e-05,8.576e-05,8.788e-05,9.12e-05,7.698e-05,7.882e-05,7.676e-05,7.82e-05,7.816e-05,7.488e-05,7.574e-05,7.584e-05,7.646e-05,7.598e-05,0.00013266,0.0001364,0.00013938,0.00013352,0.00013688,0.00012642,0.00013054,0.00012932,0.00013056,0.00013084
468,9.908e-05,9.626e-05,9.668e-05,9.616e-05,0.0001007,9.194e-05,9.588e-05,9.66e-05,9.318e-05,9.698e-05,0.00010022,9.614e-05,9.794e-05,9.812e-05,9.946e-05,9.576e-05,9.456e-05,9.222e-05,9.636e-05,9.854e-05,8.43e-05,8.564e-05,8.468e-05,8.574e-05,8.47e-05,8.148e-05,8.232e-05,8.262e-05,8.204e-05,8.258e-05,0.000141,0.00014246,0.0001457,0.00014332,0.00014732,0.00013566,0.00013582,0.00013682,0.00013998,0.00013486
470,0.0001008,9.556e-05,9.68e-05,9.896e-05,0.00010058,9.386e-05,9.782e-05,9.674e-05,9.726e-05,9.618e-05,0.00010354,9.992e-05,0.00010158,0.00010292,0.00010324,9.876e-05,9.922e-05,9.692e-05,0.00010022,0.0001027,8.786e-05,8.96e-05,8.872e-05,8.924e-05,8.83e-05,8.53e-05,8.626e-05,8.644e-05,8.606e-05,8.618e-05,0.00014534,0.00014288,0.00014634,0.0001441,0.00014438,0.00013854,0.00013872,0.00013744,0.00014162,0.00014044
472,0.00010264,9.866e-05,9.688e-05,0.00010062,0.00010032,9.456e-05,9.604e-05,9.67e-05,9.642e-05,9.758e-05,0.00010652,0.00010226,0.00010216,0.0001036,0.00010546,0.0001005,9.942e-05,9.738e-05,0.00010138,0.00010222,9.064e-05,9.238e-05,9.026e-05,9.108e-05,9.02e-05,8.708e-05,8.806e-05,8.85e-05,8.776e-05,8.812e-05,0.00014436,0.00014626,0.0001476,0.00014142,0.00014544,0.00013442,0.00013884,0.00013574,0.00013812,0.00013792
474,0.00010072,9.858e-05,9.582e-05,9.854e-05,9.956e-05,9.656e-05,9.606e-05,9.638e-05,9.562e-05,9.56e-05,0.00010482,0.0001031,0.00010356,0.0001041,0.00010388,0.00010038,9.914e-05,9.76e-05,0.00010218,0.00010182,9.09e-05,9.262e-05,9.136e-05,9.224e-05,9.11e-05,8.808e-05,8.86e-05,8.888e-05,8.86e-05,8.896e-05,0.00014028,0.000145,0.00014504,0.00013872,0.00014034,0.00013264,0.00013726,0.00013522,0.00013576,0.0001342
476,9.628e-05,9.444e-05,9.156e-05,9.594e-05,9.384e-05,9.372e-05,9.502e-05,9.426e-05,9.398e-05,9.316e-05,0.0001029,0.00010078,0.00010116,0.00010106,0.00010046,9.9e-05,9.654e-05,9.47e-05,9.912e-05,0.00010056,8.938e-05,9.03e-05,9.08e-05,9.146e-05,8.952e-05,8.718e-05,8.828e-05,8.708e-05,8.77e-05,8.752e-05,0.00013432,0.00013668,0.00013562,0.00013182,0.00013346,0.00012958,0.00013028,0.00013296,0.00013088,0.00012894
478,9.478e-05,9.336e-05,9.234e-05,9.588e-05,9.26e-05,9.152e-05,9.086e-05,9.342e-05,9.276e-05,9.186e-05,0.00010414,9.808e-05,9.91e-05,9.988e-05,0.00010082,9.918e-05,9.7e-05,9.612e-05,9.764e-05,0.00010006,9.012e-05,9.072e-05,9.068e-05,9.15e-05,8.964e-05,8.762e-05,8.85e-05,8.694e-05,8.824e-05,8.79e-05,0.00012982,0.0001335,0.00013228,0.00012916,0.00013116,0.0001252,0.00012684,0.00012988,0.0001265,0.0001252
480,9.664e-05,9.814e-05,9.556e-05,9.944e-05,9.812e-05,9.328e-05,9.334e-05,9.466e-05,9.492e-05,9.502e-05,0.0001069,0.00010346,0.0001045,0.00010502,0.000105,0.0001023,9.876e-05,0.0001,0.00010144,0.00010174,9.498e-05,9.632e-05,9.574e-05,9.674e-05,9.438e-05,9.124e-05,9.262e-05,9.16e-05,9.186e-05,9.228e-05,0.0001327,0.0001371,0.0001334,0.00012798,0.00013246,0.00012456,0.00012678,0.00012984,0.00012592,0.0001254
482,0.00010102,9.944e-05,0.00010044,0.00010454,9.992e-05,0.00010036,9.878e-05,9.942e-05,0.00010118,9.966e-05,0.00011186,0.00011086,0.00011028,0.0001089,0.00011122,0.00010724,0.00010592,0.00010552,0.00010726,0.00010896,0.0001028,0.0001039,0.0001038,0.00010356,0.0001023,9.852e-05,9.988e-05,9.868e-05,9.974e-05,9.962e-05,0.00013972,0.00014152,0.00013814,0.00013496,0.00013732,0.00012954,0.00013074,0.0001363,0.00013298,0.00013162
484,0.00010384,0.00010422,0.00010182,0.00010644,0.00010224,0.00010112,0.0001,0.00010124,0.00010328,0.00010062,0.00011718,0.00011382,0.00011418,0.00011486,0.00011484,0.00011188,0.00010832,0.00010856,0.000112,0.00011144,0.00010846,0.00010862,0.00010886,0.0001096,0.00010786,0.00010342,0.00010542,0.00010418,0.0001045,0.00010506,0.0001389,0.00013936,0.00013846,0.00013426,0.0001375,0.00013374,0.0001325,0.00013614,0.00013096,0.00013338
486,0.0001039,0.00010414,0.00010316,0.0001038,0.00010326,9.924e-05,9.886e-05,0.00010022,0.00010182,0.00010016,0.0001237,0.00012054,0.00012152,0.00012116,0.0001221,0.0001194,0.00011488,0.0001147,0.0001163,0.00011722,0.0001165,0.00011636,0.0001167,0.00011676,0.0001154,0.00010972,0.00011184,0.00011038,0.0001116,0.00011112,0.0001386,0.0001411,0.00013684,0.00013314,0.00013612,0.00013092,0.00013092,0.00013702,0.00013036,0.0001318
488,0.00010386,0.00010334,0.00010354,0.00010624,0.00010306,9.976e-05,0.0001005,0.00010128,0.00010486,0.00010164,0.00015626,0.00015366,0.00015422,0.00015312,0.0001538,0.00014518,0.00014184,0.0001405,0.0001444,0.00014114,0.0001484,0.00014804,0.00014806,0.00014786,0.00014672,0.00013556,0.00013756,0.00013646,0.00013734,0.00013692,0.00014334,0.00014332,0.00013754,0.00013814,0.00013988,0.00013456,0.00013604,0.00013994,0.00013326,0.00013692
490,0.00010796,0.00010862,0.00010778,0.0001111,0.00010582,0.00010404,0.00010444,0.00010632,0.00010826,0.00010634,0.0002592,0.0002564,0.0002568,0.0002544,0.0002566,0.0002364,0.0002312,0.0002308,0.0002332,0.0002296,0.0002458,0.0002446,0.0002444,0.0002456,0.0002438,0.0002202,0.0002216,0.00022,0.0002218,0.0002202,0.0001596,0.00015968,0.00015268,0.00015166,0.0001533,0.00014616,0.00014938,0.0001561,0.00014698,0.00015084
492,0.00011314,0.00011312,0.00011738,0.00011814,0.00011498,0.00011078,0.00011078,0.00011384,0.00011564,0.00011252,0.0004786,0.0004754,0.0004768,0.0004746,0.000476,0.0004328,0.000428,0.0004282,0.0004302,0.0004282,0.0004426,0.0004416,0.000442,0.0004418,0.0004402,0.000398,0.0003976,0.0003964,0.0003974,0.0003966,0.00018528,0.00018764,0.00018012,0.00017792,0.0001819,0.00017072,0.00017238,0.00018104,0.00017028,0.00017156
494,0.00011786,0.00012196,0.00011994,0.00012366,0.00011798,0.00011848,0.00011774,0.00011848,0.00012138,0.00011678,0.0008766,0.0008726,0.000876,0.000874,0.0008726,0.000797,0.0007946,0.0007938,0.0007944,0.000789,0.0007416,0.0007396,0.0007402,0.0007396,0.0007378,0.0006768,0.000677,0.0006752,0.0006774,0.0006752,0.0002204,0.0002222,0.0002162,0.0002148,0.0002166,0.000208,0.0002066,0.0002158,0.0002056,0.0002072
496,0.00012328,0.00012508,0.00012542,0.0001283,0.00012344,0.0001217,0.00012186,0.00012088,0.00012664,0.00012306,0.0014302,0.0014254,0.0014274,0.0014256,0.0014256,0.0013078,0.0013022,0.0013014,0.0013024,0.001296,0.0010242,0.0010218,0.0010232,0.0010238,0.0010208,0.0009504,0.0009508,0.0009484,0.0009502,0.0009494,0.00026,0.000258,0.0002518,0.0002516,0.000254,0.000244,0.0002416,0.00025,0.000244,0.0002422
498,0.00013112,0.00013396,0.00013386,0.0001363,0.00013016,0.00012954,0.00012854,0.00012874,0.0001354,0.00012984,0.002162,0.002154,0.002156,0.002152,0.002154,0.0019952,0.0019862,0.0019848,0.0019866,0.0019806,0.0012658,0.0012634,0.0012648,0.001266,0.0012628,0.0011882,0.0011884,0.0011866,0.00119,0.001188,0.0002996,0.0002972,0.000294,0.0002928,0.0002928,0.0002818,0.0002806,0.0002896,0.000278,0.0002842
500,0.00014568,0.00014736,0.0001486,0.00014874,0.00014478,0.00014068,0.00014246,0.00014152,0.00014692,0.00014194,0.002996,0.00299,0.002992,0.002988,0.002992,0.002798,0.00279,0.002792,0.002794,0.002784,0.0014678,0.0014664,0.0014672,0.0014684,0.0014654,0.0013894,0.0013894,0.0013884,0.0013926,0.0013904,0.00034,0.000339,0.0003348,0.0003334,0.0003354,0.0003224,0.0003214,0.000328,0.0003198,0.0003222
502,0.0001616,0.0001633,0.0001647,0.00016352,0.00015926,0.00015524,0.0001565,0.00015514,0.00016044,0.0001567,0.003774,0.003768,0.00377,0.003766,0.003772,0.00357,0.003562,0.003564,0.003566,0.003556,0.001621,0.0016198,0.0016206,0.0016228,0.0016192,0.0015464,0.0015466,0.0015464,0.001549,0.001547,0.0003736,0.000376,0.0003682,0.0003694,0.000371,0.0003562,0.000357,0.000363,0.0003568,0.0003598
504,0.00016974,0.00017406,0.00017392,0.00017412,0.00017086,0.00016746,0.00016834,0.0001658,0.00017218,0.00016726,0.004342,0.004338,0.004336,0.004334,0.004342,0.004158,0.004154,0.004154,0.004156,0.004144,0.0017102,0.0017094,0.0017104,0.0017122,0.0017092,0.001644,0.0016462,0.0016462,0.0016478,0.0016454,0.0003918,0.0003952,0.0003868,0.000388,0.0003916,0.000379,0.000379,0.0003864,0.0003776,0.000383
506,0.00017744,0.00018012,0.00017998,0.0001806,0.0001773,0.00017546,0.00017286,0.00017274,0.00018034,0.00017446,0.00461,0.004606,0.004606,0.004606,0.004614,0.004472,0.004468,0.004464,0.004468,0.00446,0.001685,0.0016846,0.0016858,0.0016858,0.0016854,0.0016444,0.0016468,0.0016456,0.0016466,0.0016456,0.0003898,0.0003906,0.000383,0.0003886,0.0003908,0.0003806,0.0003834,0.0003868,0.0003812,0.000383
508,0.00018112,0.00018454,0.00018346,0.00018394,0.00018122,0.00017868,0.00017774,0.00017784,0.00018212,0.0001788,0.004544,0.004546,0.004544,0.004544,0.004556,0.004456,0.004454,0.004448,0.004454,0.00445,0.0014878,0.001489,0.0014902,0.0014886,0.0014906,0.0014826,0.001484,0.0014828,0.0014842,0.0014842,0.0003666,0.0003622,0.0003598,0.0003654,0.0003656,0.0003644,0.0003632,0.0003684,0.0003622,0.0003642
510,0.00018202,0.00018596,0.00018648,0.0001858,0.00018276,0.00017998,0.00017978,0.0001769,0.000185,0.00017948,0.00423,0.004232,0.00423,0.00423,0.004242,0.004188,0.004184,0.004182,0.004188,0.004186,0.001171,0.0011724,0.0011742,0.0011722,0.0011754,0.0011916,0.001192,0.001193,0.0011926,0.0011924,0.0003354,0.0003326,0.0003302,0.0003324,0.0003326,0.0003296,0.0003332,0.0003364,0.000333,0.000337
512,0.00017928,0.0001843,0.00018514,0.00018414,0.00018116,0.0001782,0.0001793,0.00017444,0.00018396,0.0001786,0.003654,0.00366,0.003654,0.003658,0.00367,0.003672,0.003668,0.00367,0.003674,0.003672,0.000836,0.0008376,0.0008388,0.0008374,0.0008402,0.000863,0.0008634,0.0008648,0.0008638,0.0008638,0.0003014,0.0003002,0.000295,0.0003008,0.0003006,0.0002984,0.000301,0.0003024,0.0003,0.0003042
514,0.00017242,0.00017734,0.00017658,0.00017552,0.00017196,0.0001726,0.00017184,0.00016966,0.00017512,0.00017174,0.002788,0.002798,0.00279,0.002796,0.002806,0.002864,0.002864,0.002866,0.00287,0.002868,0.000571,0.0005718,0.0005726,0.0005716,0.0005732,0.0005916,0.0005918,0.0005926,0.0005924,0.0005924,0.0002662,0.0002642,0.0002596,0.0002686,0.0002664,0.0002664,0.0002684,0.000269,0.0002678,0.0002708
516,0.00016108,0.00016586,0.00016386,0.00016358,0.00016018,0.00015964,0.0001597,0.00015758,0.00016404,0.0001601,0.0017654,0.001774,0.0017666,0.0017724,0.0017796,0.0018656,0.001867,0.0018692,0.001868,0.0018704,0.0003836,0.0003842,0.0003846,0.0003842,0.0003852,0.0003974,0.0003976,0.000398,0.0003976,0.0003974,0.0002348,0.0002328,0.0002306,0.0002362,0.0002342,0.0002322,0.0002346,0.0002354,0.000235,0.0002386
518,0.00015302,0.00015672,0.00015506,0.00015406,0.0001524,0.00015,0.00015132,0.00014782,0.00015328,0.00015024,0.0008716,0.0008786,0.000873,0.0008766,0.0008804,0.0009422,0.000944,0.0009448,0.0009432,0.0009448,0.0002574,0.000258,0.0002582,0.0002578,0.0002592,0.0002634,0.0002624,0.0002638,0.0002628,0.0002638,0.0002138,0.0002104,0.0002104,0.0002144,0.0002138,0.0002048,0.0002124,0.000211,0.0002124,0.0002106
520,0.00015062,0.00015588,0.0001525,0.00015234,0.00015138,0.0001486,0.0001479,0.00014608,0.000151,0.00015092,0.0004472,0.0004508,0.0004478,0.000451,0.0004512,0.0004736,0.0004748,0.000476,0.000474,0.000474,0.000205,0.000205,0.0002054,0.0002048,0.0002056,0.0002042,0.0002024,0.0002038,0.0002036,0.0002042,0.0002068,0.0002048,0.0002026,0.0002092,0.0002066,0.00019942,0.0002056,0.0002046,0.0002042,0.0002048
522,0.00015418,0.00015656,0.00015308,0.00015454,0.00015264,0.00014856,0.00014998,0.00014686,0.0001524,0.00015164,0.000327,0.0003304,0.0003276,0.0003284,0.00033,0.000332,0.000333,0.0003344,0.0003302,0.0003322,0.00018948,0.00018942,0.00018974,0.0001889,0.00019028,0.00018666,0.0001848,0.00018564,0.00018572,0.00018634,0.0002088,0.0002072,0.000206,0.0002116,0.0002062,0.000201,0.000204,0.0002042,0.0002068,0.0002056
524,0.00015672,0.00016028,0.00015644,0.00015676,0.00015744,0.00015182,0.00015412,0.00015074,0.00015548,0.00015476,0.0002986,0.000303,0.0002998,0.0002998,0.0003026,0.0002984,0.000298,0.000301,0.0002962,0.0002978,0.00018466,0.00018506,0.00018494,0.00018436,0.00018528,0.00018068,0.00017986,0.00018074,0.00018078,0.00018098,0.0002138,0.0002118,0.0002118,0.0002172,0.0002112,0.0002042,0.0002092,0.000208,0.0002114,0.00021
526,0.00016124,0.00016494,0.0001597,0.00016098,0.00016132,0.00015764,0.0001589,0.0001552,0.00015892,0.00015948,0.00029,0.0002944,0.000291,0.0002906,0.0002936,0.0002882,0.0002898,0.000291,0.000289,0.0002888,0.00018242,0.00018266,0.00018266,0.00018222,0.00018258,0.0001782,0.0001779,0.00017898,0.0001782,0.0001779,0.000217,0.0002162,0.0002162,0.0002228,0.0002182,0.0002114,0.0002152,0.000213,0.0002174,0.0002156
528,0.00016528,0.00016904,0.00016302,0.00016556,0.00016556,0.00016182,0.00016362,0.00015874,0.00016132,0.0001613,0.000282,0.000287,0.0002832,0.0002832,0.0002848,0.0002796,0.0002824,0.0002832,0.0002806,0.0002808,0.00017968,0.00017984,0.00017964,0.00017946,0.00018016,0.00017594,0.0001747,0.0001758,0.00017536,0.00017548,0.0002228,0.0002216,0.0002226,0.000225,0.0002246,0.0002186,0.0002202,0.0002172,0.0002206,0.0002206
530,0.0001703,0.00017214,0.00016894,0.0001688,0.00017066,0.00016574,0.00016652,0.00016306,0.00016554,0.0001682,0.0002732,0.0002746,0.0002724,0.0002728,0.0002752,0.0002718,0.0002734,0.000273,0.00027,0.0002722,0.0001766,0.0001777,0.00017752,0.00017728,0.00017754,0.00017388,0.0001728,0.00017306,0.00017312,0.00017352,0.0002298,0.0002268,0.0002298,0.0002316,0.0002284,0.000225,0.0002262,0.0002232,0.0002242,0.000227
532,0.00017504,0.00017554,0.00017296,0.00017474,0.00017432,0.00017012,0.0001727,0.00016808,0.00017008,0.00017228,0.0002644,0.0002666,0.0002644,0.0002642,0.0002648,0.000261,0.0002626,0.0002636,0.0002618,0.0002634,0.00017616,0.00017728,0.00017634,0.000176,0.00017694,0.00017288,0.00017188,0.00017226,0.00017256,0.00017288,0.000235,0.0002308,0.0002336,0.000237,0.000233,0.0002306,0.0002316,0.0002282,0.000233,0.0002322
534,0.00017936,0.00018122,0.00017704,0.00017926,0.00017892,0.00017364,0.0001762,0.00017354,0.0001747,0.00017716,0.0002562,0.0002598,0.0002562,0.0002568,0.0002582,0.0002536,0.0002548,0.0002556,0.0002546,0.000256,0.00017516,0.00017618,0.00017538,0.00017498,0.00017602,0.00017178,0.0001708,0.0001716,0.00017194,0.00017162,0.0002416,0.0002384,0.0002394,0.000242,0.0002386,0.0002366,0.0002358,0.000233,0.0002384,0.0002378
536,0.00018526,0.00018522,0.0001827,0.00018482,0.00018446,0.00017838,0.00018134,0.0001797,0.00017928,0.000183,0.0002526,0.000255,0.0002528,0.000253,0.0002542,0.0002478,0.000249,0.0002502,0.0002498,0.0002508,0.00017524,0.00017654,0.0001754,0.00017542,0.00017642,0.00017146,0.00017112,0.00017162,0.00017146,0.00017174,0.0002468,0.0002434,0.0002468,0.000249,0.0002462,0.0002412,0.000242,0.000239,0.0002446,0.000241
538,0.00019216,0.00019122,0.0001893,0.00019064,0.0001889,0.00018448,0.00018606,0.00018458,0.00018546,0.0001872,0.0002498,0.000252,0.000251,0.0002514,0.0002518,0.0002442,0.0002464,0.0002476,0.0002462,0.0002466,0.00017608,0.00017724,0.00017622,0.00017602,0.00017718,0.00017238,0.00017152,0.00017206,0.00017198,0.00017246,0.0002524,0.0002498,0.0002528,0.0002558,0.000252,0.0002482,0.0002504,0.000245,0.000251,0.0002474
540,0.00019696,0.00019664,0.0001923,0.0001959,0.00019512,0.00019162,0.00019098,0.00019096,0.0001897,0.0001925,0.000249,0.0002502,0.0002496,0.00025,0.0002506,0.0002422,0.0002454,0.000246,0.000245,0.0002458,0.0001776,0.00017868,0.00017764,0.00017754,0.00017848,0.00017338,0.00017302,0.00017368,0.00017306,0.00017306,0.0002576,0.0002552,0.0002568,0.0002582,0.000257,0.0002548,0.000256,0.0002498,0.000256,0.0002534
542,0.0002032,0.0002032,0.0002004,0.0002018,0.0002016,0.00019742,0.00019932,0.00019778,0.00019678,0.00019864,0.0002492,0.0002498,0.0002484,0.0002502,0.0002502,0.000243,0.000245,0.000245,0.0002452,0.0002462,0.00017914,0.00018022,0.00017884,0.0001795,0.00017942,0.00017528,0.00017502,0.00017488,0.00017422,0.00017498,0.0002628,0.0002622,0.000266,0.000266,0.0002642,0.0002616,0.0002602,0.0002556,0.0002614,0.0002592
544,0.0002098,0.0002072,0.0002052,0.0002072,0.0002076,0.0002048,0.000205,0.0002042,0.000202,0.0002042,0.0002482,0.0002498,0.0002482,0.0002494,0.0002504,0.0002428,0.0002446,0.0002448,0.0002464,0.0002464,0.00018022,0.0001821,0.000181,0.00018124,0.00018154,0.00017746,0.00017688,0.00017716,0.00017684,0.00017746,0.0002668,0.0002656,0.0002706,0.000269,0.0002684,0.0002652,0.0002652,0.0002616,0.0002666,0.0002644
546,0.0002136,0.0002126,0.000209,0.0002106,0.0002108,0.0002094,0.0002092,0.000209,0.0002058,0.0002086,0.0002468,0.0002498,0.000247,0.000249,0.0002488,0.000242,0.0002438,0.0002436,0.000246,0.0002466,0.00018146,0.00018306,0.00018222,0.00018226,0.00018262,0.00017884,0.00017838,0.0001788,0.00017864,0.00017866,0.0002696,0.0002676,0.0002718,0.0002706,0.0002698,0.0002696,0.0002666,0.0002646,0.0002696,0.0002674
548,0.0002168,0.0002156,0.0002128,0.0002158,0.000215,0.000213,0.0002136,0.0002134,0.0002104,0.000213,0.000247,0.0002476,0.0002468,0.0002498,0.0002478,0.0002424,0.0002432,0.0002424,0.0002462,0.000246,0.00018308,0.00018438,0.00018354,0.0001838,0.00018398,0.00018024,0.00017994,0.00018052,0.00018036,0.00018018,0.000271,0.0002704,0.0002738,0.0002718,0.000272,0.000271,0.0002696,0.0002672,0.000271,0.0002702
550,0.000221,0.0002194,0.0002162,0.0002192,0.0002186,0.0002158,0.0002164,0.000217,0.0002122,0.0002148,0.0002466,0.0002468,0.0002474,0.0002486,0.0002476,0.0002412,0.000242,0.0002422,0.0002448,0.0002454,0.00018502,0.00018608,0.00018552,0.00018568,0.00018554,0.00018204,0.00018196,0.00018242,0.00018198,0.00018164,0.000271,0.000273,0.0002766,0.0002738,0.000274,0.0002718,0.0002726,0.0002706,0.0002738,0.0002722
552,0.000222,0.0002204,0.0002186,0.000221,0.0002204,0.0002176,0.0002178,0.0002184,0.0002148,0.0002164,0.000246,0.0002462,0.0002472,0.0002476,0.0002482,0.00024,0.0002412,0.0002424,0.0002446,0.0002446,0.00018624,0.00018782,0.0001868,0.0001875,0.00018668,0.00018388,0.00018342,0.00018428,0.00018374,0.0001835,0.0002758,0.0002766,0.0002784,0.0002774,0.0002764,0.0002786,0.0002744,0.0002708,0.000276,0.000275
554,0.0002216,0.0002204,0.0002192,0.0002194,0.0002208,0.0002172,0.0002174,0.0002188,0.000214,0.000216,0.0002476,0.0002466,0.0002458,0.0002472,0.0002496,0.0002414,0.0002422,0.000241,0.0002448,0.000243,0.00018782,0.00018918,0.000188,0.00018894,0.00018822,0.00018466,0.0001853,0.00018544,0.00018508,0.00018482,0.000284,0.0002844,0.0002854,0.0002836,0.0002844,0.0002844,0.0002836,0.0002786,0.0002816,0.0002816
556,0.0002214,0.000218,0.000217,0.0002182,0.0002192,0.0002166,0.0002154,0.0002166,0.0002124,0.0002142,0.000247,0.0002456,0.0002464,0.0002468,0.0002488,0.0002406,0.0002412,0.00024,0.0002442,0.0002426,0.00018854,0.00018944,0.00018944,0.00018996,0.00018884,0.00018502,0.0001855,0.00018584,0.00018538,0.0001856,0.00031,0.0003108,0.0003122,0.0003094,0.0003118,0.0003048,0.0003034,0.0003018,0.0003052,0.0003016
558,0.0002188,0.0002152,0.0002144,0.0002156,0.0002154,0.0002132,0.0002122,0.000211,0.000208,0.0002104,0.0002474,0.0002448,0.0002464,0.000247,0.0002484,0.0002398,0.0002406,0.000239,0.000243,0.0002428,0.00019018,0.000191,0.00019084,0.00019128,0.00018986,0.00018562,0.000186,0.00018614,0.00018588,0.00018632,0.0004136,0.0004152,0.0004156,0.0004138,0.0004148,0.0003896,0.0003884,0.0003852,0.0003902,0.0003858
560,0.0002142,0.000211,0.0002106,0.0002106,0.0002118,0.0002072,0.0002084,0.0002086,0.0002046,0.000206,0.0002486,0.0002466,0.0002468,0.0002482,0.0002482,0.0002402,0.0002406,0.0002384,0.000243,0.0002422,0.00019118,0.0001923,0.00019184,0.00019226,0.0001906,0.00018648,0.00018694,0.00018682,0.00018716,0.0001868,0.0007396,0.0007426,0.0007444,0.0007396,0.0007408,0.0006648,0.0006652,0.000661,0.0006658,0.0006606
562,0.0002096,0.0002068,0.0002068,0.0002082,0.000207,0.0002034,0.0002048,0.0002056,0.0002004,0.0002014,0.0002492,0.0002468,0.0002472,0.0002478,0.000248,0.0002402,0.0002402,0.000238,0.0002422,0.0002406,0.00019112,0.00019238,0.00019198,0.00019262,0.0001913,0.0001859,0.00018684,0.0001868,0.00018708,0.0001868,0.0014608,0.0014638,0.0014616,0.0014578,0.0014576,0.0013032,0.0013074,0.0013,0.0013036,0.0012966
564,0.0002082,0.0002062,0.0002062,0.000205,0.000207,0.0002026,0.0002026,0.000203,0.0001988,0.0002014,0.000248,0.0002454,0.0002476,0.0002476,0.0002486,0.0002384,0.0002388,0.0002378,0.0002418,0.0002396,0.00019156,0.00019202,0.00019216,0.00019314,0.00019114,0.0001859,0.00018738,0.00018738,0.00018672,0.00018618,0.002734,0.002738,0.002738,0.002728,0.00273,0.002494,0.002496,0.002484,0.00249,0.002478
566,0.0002206,0.0002182,0.000218,0.0002184,0.00022,0.0002116,0.000213,0.0002152,0.0002096,0.000211,0.0002494,0.0002464,0.0002468,0.0002476,0.0002484,0.0002404,0.0002412,0.0002388,0.0002422,0.0002412,0.00019138,0.00019218,0.00019144,0.0001933,0.00019128,0.00018716,0.00018806,0.00018738,0.00018706,0.00018678,0.004202,0.004206,0.004206,0.004192,0.004194,0.003898,0.0039,0.003886,0.003894,0.003884
568,0.00027,0.0002676,0.0002668,0.0002686,0.0002682,0.000254,0.0002544,0.0002558,0.0002514,0.0002522,0.0002498,0.0002468,0.0002468,0.0002472,0.0002476,0.000241,0.0002422,0.0002398,0.0002438,0.0002414,0.00019108,0.00019158,0.00019128,0.00019258,0.0001909,0.00018688,0.00018796,0.00018718,0.00018688,0.00018694,0.005744,0.00575,0.005748,0.005732,0.005734,0.005394,0.005396,0.00538,0.005394,0.00538
570,0.000429,0.0004252,0.0004248,0.0004248,0.000424,0.0003866,0.000386,0.000389,0.0003842,0.0003844,0.0002512,0.0002474,0.0002494,0.0002482,0.0002496,0.0002434,0.0002438,0.0002412,0.0002446,0.0002438,0.00019096,0.00019102,0.00019102,0.00019232,0.00019102,0.00018694,0.0001879,0.00018732,0.0001869,0.00018652,0.007308,0.007318,0.007316,0.007298,0.0073,0.006918,0.00692,0.006904,0.006924,0.006908
572,0.000846,0.000843,0.0008434,0.0008406,0.0008378,0.0007516,0.0007496,0.0007528,0.0007476,0.0007472,0.0002566,0.0002534,0.0002544,0.0002528,0.0002556,0.0002488,0.0002492,0.0002462,0.0002486,0.0002484,0.00019152,0.00019198,0.00019204,0.00019332,0.0001916,0.0001877,0.00018838,0.00018804,0.00018774,0.00018696,0.008842,0.008852,0.00885,0.008828,0.008832,0.008416,0.008418,0.00841,0.008424,0.008408
574,0.0017162,0.0017114,0.0017128,0.0017084,0.0017036,0.0015486,0.001545,0.0015504,0.0015432,0.0015426,0.0002678,0.000263,0.0002646,0.000264,0.0002656,0.0002578,0.0002584,0.0002558,0.0002586,0.0002576,0.0001928,0.00019194,0.00019266,0.00019354,0.0001925,0.00018808,0.00018934,0.00018836,0.0001892,0.0001881,0.010332,0.01034,0.010338,0.010318,0.01032,0.009884,0.009892,0.00988,0.009896,0.009872
576,0.003014,0.003006,0.003008,0.003,0.002998,0.002778,0.002776,0.00278,0.002778,0.00277,0.0002862,0.0002828,0.000283,0.0002818,0.0002838,0.0002746,0.0002764,0.000273,0.000276,0.000275,0.00019564,0.00019556,0.00019554,0.00019668,0.00019592,0.00019116,0.00019182,0.00019098,0.00019128,0.00019112,0.011578,0.011592,0.011588,0.011568,0.011574,0.011148,0.01116,0.011144,0.011156,0.011134
578,0.004386,0.00438,0.004382,0.004374,0.00437,0.004098,0.004098,0.0041,0.0041,0.004088,0.0003136,0.0003098,0.0003104,0.000309,0.000311,0.0003004,0.0003022,0.0002994,0.0003,0.000299,0.0002032,0.0002034,0.0002038,0.000204,0.0002038,0.00019804,0.0001985,0.00019804,0.00019784,0.00019742,0.012366,0.012378,0.012378,0.012358,0.012364,0.01197,0.011982,0.011966,0.011976,0.011952
580,0.005798,0.005794,0.005794,0.005788,0.005778,0.005464,0.005466,0.005466,0.00547,0.00545,0.0003594,0.000355,0.0003564,0.0003552,0.0003566,0.0003424,0.0003422,0.0003408,0.0003396,0.0003392,0.000219,0.0002188,0.0002198,0.0002196,0.000219,0.0002112,0.0002128,0.0002112,0.0002116,0.0002112,0.012832,0.012846,0.012846,0.012824,0.012836,0.012468,0.012478,0.012462,0.01247,0.01245
582,0.007156,0.007148,0.00715,0.007142,0.007132,0.006782,0.006782,0.006778,0.006792,0.006766,0.0004474,0.0004442,0.0004454,0.000444,0.0004434,0.0004194,0.0004194,0.0004162,0.0004168,0.0004158,0.0002488,0.0002484,0.0002486,0.0002488,0.0002484,0.0002374,0.0002382,0.000237,0.0002374,0.0002368,0.013058,0.01307,0.013072,0.01305,0.013062,0.012712,0.012716,0.012702,0.01271,0.012694
584,0.008382,0.008376,0.008376,0.00837,0.00836,0.007978,0.007976,0.00797,0.007996,0.00796,0.0006366,0.0006318,0.0006344,0.0006316,0.0006318,0.0005838,0.000584,0.0005822,0.0005816,0.000579,0.000302,0.0003012,0.0003012,0.0003016,0.0003008,0.0002844,0.000284,0.0002834,0.0002842,0.0002834,0.013114,0.013124,0.01313,0.013104,0.013114,0.012768,0.012768,0.012756,0.01277,0.012754
586,0.009462,0.009458,0.009458,0.009454,0.009444,0.009052,0.009048,0.009044,0.00908,0.009034,0.0010252,0.0010178,0.0010206,0.0010166,0.0010178,0.0009392,0.0009376,0.0009366,0.0009354,0.0009326,0.0004028,0.0004018,0.0004028,0.0004022,0.000402,0.000375,0.0003756,0.0003738,0.0003754,0.0003736,0.012996,0.013008,0.013016,0.012988,0.012998,0.012644,0.012648,0.012642,0.012658,0.01264
588,0.010056,0.010052,0.010054,0.010052,0.010042,0.009682,0.00968,0.009676,0.009716,0.009672,0.0014492,0.0014436,0.001446,0.0014422,0.0014428,0.0013518,0.0013492,0.0013476,0.001349,0.0013438,0.0005346,0.0005338,0.0005342,0.0005342,0.0005334,0.000497,0.0004974,0.0004954,0.0004966,0.0004954,0.012798,0.012808,0.012816,0.01279,0.012802,0.012458,0.01247,0.012464,0.012478,0.012456
590,0.010128,0.010128,0.01013,0.010132,0.010122,0.009854,0.009854,0.00985,0.009872,0.009844,0.001803,0.0017982,0.001799,0.001796,0.0017988,0.0017168,0.001715,0.001713,0.0017144,0.0017092,0.0007016,0.0007006,0.0007012,0.0007012,0.0007,0.0006528,0.0006536,0.0006522,0.0006534,0.0006514,0.012494,0.012504,0.012514,0.01249,0.012502,0.012192,0.012208,0.012202,0.012212,0.012188
592,0.009526,0.00953,0.009532,0.009538,0.00953,0.0094,0.009408,0.0094,0.009392,0.009394,0.002008,0.002002,0.002002,0.002,0.002006,0.0019446,0.0019434,0.001941,0.00194,0.001937,0.00091,0.0009086,0.0009086,0.0009096,0.0009076,0.000849,0.0008506,0.0008494,0.0008504,0.0008486,0.01211,0.01212,0.012132,0.01211,0.012118,0.011862,0.011878,0.011872,0.011878,0.011858
594,0.008274,0.008282,0.008284,0.008294,0.008286,0.0083,0.008316,0.008304,0.008274,0.008298,0.002078,0.002074,0.002074,0.002072,0.002078,0.002036,0.002036,0.002032,0.002032,0.002028,0.001159,0.0011578,0.0011582,0.001159,0.0011566,0.0010862,0.0010876,0.0010858,0.0010876,0.001086,0.011674,0.011684,0.011696,0.011674,0.011684,0.011478,0.011494,0.011484,0.01149,0.011472
596,0.006456,0.006464,0.006464,0.006472,0.006472,0.00658,0.00659,0.006576,0.006552,0.006578,0.002048,0.002044,0.002044,0.002044,0.002052,0.00202,0.00202,0.002018,0.002016,0.002012,0.001473,0.0014706,0.0014712,0.0014728,0.0014694,0.001386,0.001386,0.0013848,0.001387,0.0013854,0.011138,0.011146,0.011156,0.011132,0.011146,0.010984,0.01099,0.01098,0.01099,0.010978
598,0.004794,0.004802,0.004802,0.004808,0.004812,0.004928,0.004936,0.004924,0.00491,0.004926,0.001939,0.0019348,0.0019354,0.001934,0.0019404,0.0019238,0.0019212,0.001919,0.0019186,0.0019182,0.0017892,0.0017868,0.0017878,0.0017898,0.001785,0.0016898,0.001689,0.0016874,0.0016912,0.0016898,0.010642,0.010646,0.010656,0.010638,0.010646,0.010498,0.010504,0.010498,0.010508,0.010498
600,0.003408,0.003414,0.003414,0.003422,0.003424,0.00352,0.003522,0.003512,0.003512,0.00352,0.0017124,0.0017122,0.0017126,0.0017112,0.0017166,0.0017202,0.0017168,0.0017156,0.001717,0.0017172,0.002106,0.002104,0.002104,0.002108,0.002102,0.0019972,0.0019964,0.001995,0.002,0.0019998,0.010158,0.010168,0.010174,0.010156,0.010166,0.010018,0.010024,0.01002,0.010032,0.010022
602,0.002284,0.00229,0.002288,0.002294,0.002298,0.002376,0.002378,0.00237,0.002378,0.00238,0.001364,0.0013662,0.0013662,0.001366,0.0013712,0.0013924,0.0013912,0.0013902,0.0013914,0.0013914,0.002416,0.002414,0.002414,0.00242,0.002412,0.0023,0.002298,0.002298,0.002306,0.002304,0.00968,0.009686,0.009698,0.009678,0.009692,0.009542,0.009548,0.009548,0.009558,0.009544
604,0.0013848,0.001392,0.0013912,0.001395,0.001398,0.0014648,0.0014638,0.0014604,0.0014664,0.0014648,0.001024,0.0010258,0.0010258,0.001026,0.001031,0.0010452,0.001045,0.0010428,0.0010434,0.0010438,0.00271,0.002708,0.002708,0.002718,0.002706,0.002588,0.002588,0.002588,0.002598,0.002596,0.009192,0.009198,0.009212,0.009196,0.009206,0.009056,0.009066,0.009068,0.009076,0.009058
606,0.0007384,0.0007426,0.0007416,0.0007442,0.0007456,0.0007796,0.0007824,0.000778,0.0007832,0.0007816,0.0009898,0.0009894,0.0009908,0.0009888,0.00099,0.000949,0.000945,0.0009462,0.0009448,0.0009444,0.00297,0.00297,0.00297,0.00298,0.002968,0.002852,0.002852,0.002852,0.002864,0.002862,0.008588,0.008592,0.008606,0.008592,0.008598,0.008464,0.008476,0.00848,0.008484,0.008466
608,0.0004644,0.0004668,0.0004672,0.0004664,0.0004654,0.000479,0.0004764,0.0004726,0.0004794,0.000476,0.0015194,0.0015146,0.0015174,0.0015124,0.0015136,0.001387,0.001384,0.0013852,0.001382,0.0013788,0.003106,0.003106,0.003106,0.003116,0.003104,0.002998,0.003,0.003,0.00301,0.003008,0.007846,0.00785,0.007862,0.007848,0.00786,0.007754,0.007764,0.007764,0.007768,0.007756
610,0.0003788,0.0003826,0.000381,0.0003798,0.0003802,0.000378,0.0003764,0.0003734,0.0003788,0.0003758,0.002456,0.002448,0.002452,0.002448,0.002448,0.002246,0.002242,0.002244,0.00224,0.002236,0.003102,0.003104,0.003104,0.003106,0.003102,0.003012,0.003016,0.003016,0.00302,0.003018,0.006948,0.006952,0.006964,0.00695,0.00696,0.006888,0.006896,0.006894,0.006894,0.00689
612,0.000347,0.0003506,0.000349,0.0003496,0.0003488,0.000341,0.0003396,0.0003388,0.0003436,0.0003398,0.003602,0.003596,0.003596,0.00359,0.003592,0.003332,0.003328,0.003328,0.003324,0.00332,0.002948,0.00295,0.00295,0.002946,0.00295,0.002886,0.002888,0.002888,0.002884,0.002884,0.005934,0.005934,0.005944,0.00594,0.005946,0.005902,0.005908,0.005906,0.00591,0.005906
614,0.0003316,0.0003362,0.000332,0.0003332,0.000332,0.0003256,0.000324,0.0003252,0.0003282,0.0003244,0.004808,0.004802,0.004804,0.004798,0.004802,0.004498,0.004494,0.00449,0.00449,0.004486,0.00264,0.002642,0.002644,0.002634,0.002644,0.002612,0.002612,0.002616,0.002604,0.002606,0.004882,0.004876,0.00489,0.004886,0.004892,0.00488,0.00488,0.004884,0.004888,0.004884
616,0.0003296,0.0003336,0.0003312,0.0003322,0.0003278,0.000321,0.0003192,0.00032,0.0003204,0.0003208,0.00608,0.006074,0.006072,0.00607,0.006074,0.005748,0.005742,0.005738,0.005738,0.005738,0.00216,0.002164,0.002164,0.002156,0.002166,0.00217,0.00217,0.002174,0.002164,0.002164,0.003746,0.003744,0.003756,0.00375,0.003756,0.003774,0.003774,0.003782,0.003782,0.00378
618,0.0003446,0.0003488,0.000343,0.0003458,0.0003434,0.000334,0.000331,0.000331,0.0003338,0.0003316,0.00721,0.007204,0.007204,0.0072,0.007206,0.006882,0.00687,0.00687,0.006874,0.006872,0.0016234,0.001627,0.0016288,0.0016222,0.0016308,0.0016628,0.0016626,0.0016672,0.0016606,0.0016594,0.002714,0.002714,0.002722,0.002722,0.002722,0.002764,0.00277,0.002776,0.002778,0.002776
620,0.0003822,0.0003846,0.0003824,0.0003826,0.000382,0.000368,0.0003648,0.0003658,0.0003668,0.0003664,0.008152,0.008146,0.008146,0.008142,0.008148,0.007842,0.007836,0.007832,0.007838,0.007834,0.0011192,0.0011224,0.0011242,0.0011204,0.0011256,0.0011702,0.0011702,0.0011748,0.0011696,0.001169,0.0018474,0.0018434,0.0018512,0.0018538,0.0018558,0.0019082,0.0019112,0.0019164,0.0019168,0.0019164
622,0.0004468,0.0004508,0.0004468,0.0004482,0.000445,0.000426,0.0004246,0.000427,0.0004228,0.0004266,0.008908,0.008902,0.0089,0.0089,0.008906,0.008634,0.008628,0.008626,0.008632,0.008628,0.000734,0.0007364,0.0007374,0.0007358,0.0007384,0.0007682,0.0007672,0.0007716,0.0007682,0.0007674,0.0011898,0.0011818,0.0011904,0.0011932,0.001195,0.0012306,0.0012344,0.0012376,0.0012328,0.0012368
624,0.0005388,0.0005426,0.0005384,0.0005412,0.0005372,0.0005128,0.0005108,0.0005104,0.0005106,0.000512,0.009398,0.009396,0.009388,0.009392,0.009402,0.009172,0.009166,0.009166,0.00917,0.009168,0.0006102,0.00061,0.0006108,0.0006096,0.0006108,0.000601,0.0005986,0.0006018,0.0005996,0.0005992,0.0008972,0.0008876,0.0008928,0.0009008,0.0008954,0.0008874,0.0008936,0.0008914,0.0008902,0.000892
626,0.000676,0.0006768,0.0006748,0.0006754,0.0006746,0.0006414,0.0006402,0.000641,0.0006384,0.0006412,0.00961,0.00961,0.0096,0.009608,0.009618,0.009436,0.009432,0.009428,0.009436,0.009434,0.0008278,0.0008264,0.0008262,0.000827,0.0008252,0.0007684,0.0007668,0.0007674,0.0007664,0.0007662,0.0010478,0.0010398,0.001046,0.00105,0.001048,0.0009838,0.0009922,0.0009908,0.0009896,0.00099
628,0.0008372,0.0008402,0.0008362,0.0008374,0.0008346,0.0007994,0.0007982,0.0007972,0.0007948,0.0007976,0.009536,0.009536,0.009528,0.009536,0.009552,0.009404,0.0094,0.009398,0.009406,0.009404,0.0012566,0.0012542,0.0012532,0.001255,0.0012526,0.0011652,0.0011624,0.0011632,0.0011632,0.0011622,0.001481,0.001476,0.001478,0.0014788,0.0014768,0.001386,0.0013902,0.0013892,0.0013864,0.0013858
630,0.0010104,0.0010132,0.0010106,0.0010124,0.0010084,0.0009662,0.0009646,0.000965,0.0009638,0.0009648,0.009282,0.009284,0.009274,0.009286,0.009302,0.009184,0.009176,0.009174,0.009182,0.009182,0.0017376,0.0017354,0.0017344,0.0017386,0.001734,0.0016288,0.0016266,0.0016262,0.0016268,0.0016272,0.0019876,0.0019826,0.0019844,0.0019862,0.0019852,0.0018742,0.0018796,0.0018766,0.001877,0.0018756
632,0.0011988,0.0012002,0.0011992,0.0012014,0.0011972,0.001147,0.0011464,0.0011486,0.0011448,0.0011476,0.008906,0.00891,0.008902,0.008912,0.008928,0.008832,0.008822,0.008818,0.00883,0.008832,0.002236,0.002234,0.002232,0.00224,0.00223,0.002114,0.00211,0.00211,0.002114,0.002114,0.002518,0.002512,0.002518,0.002518,0.002518,0.002398,0.0024,0.002394,0.002396,0.002394
634,0.0013952,0.0013956,0.0013922,0.0013958,0.0013942,0.0013386,0.0013372,0.0013406,0.0013352,0.001338,0.008474,0.00848,0.00847,0.008482,0.008498,0.00841,0.0084,0.008398,0.008414,0.008412,0.00273,0.002728,0.002728,0.002738,0.002726,0.0026,0.002594,0.002596,0.002602,0.002602,0.003048,0.003046,0.003052,0.003048,0.003048,0.00292,0.002922,0.002914,0.002916,0.002918
636,0.0015998,0.0016032,0.0016002,0.001602,0.0016024,0.0015408,0.0015426,0.0015462,0.001541,0.0015404,0.007978,0.007984,0.007974,0.007986,0.008002,0.007914,0.007904,0.007904,0.00792,0.00792,0.003252,0.00325,0.00325,0.00326,0.003246,0.003112,0.003108,0.00311,0.003118,0.003116,0.003608,0.003604,0.003606,0.0036,0.003604,0.00347,0.003474,0.003468,0.003468,0.003468
638,0.0017914,0.0017908,0.0017858,0.0017888,0.0017874,0.0017224,0.0017234,0.0017282,0.001722,0.0017244,0.007538,0.007542,0.007534,0.007542,0.007556,0.007466,0.007456,0.007458,0.007472,0.00747,0.003686,0.003686,0.003684,0.0037,0.00368,0.003544,0.003542,0.003542,0.003554,0.00355,0.004056,0.004058,0.00406,0.004056,0.004054,0.003918,0.003924,0.003918,0.00392,0.003914
640,0.001964,0.001963,0.001961,0.0019588,0.0019596,0.0018946,0.0018954,0.0018974,0.001892,0.0018972,0.007156,0.007156,0.00715,0.007158,0.00717,0.007072,0.007068,0.007068,0.00708,0.007076,0.004016,0.004018,0.004016,0.004032,0.004012,0.00388,0.003878,0.003878,0.00389,0.003888,0.004342,0.004348,0.004348,0.004344,0.004342,0.004224,0.004228,0.004218,0.00422,0.004216
642,0.002122,0.00212,0.002118,0.002116,0.002116,0.002052,0.002052,0.002054,0.002048,0.002054,0.006804,0.006802,0.006794,0.006802,0.006814,0.006714,0.006712,0.00671,0.006722,0.006718,0.004212,0.004214,0.004212,0.004224,0.00421,0.004092,0.004092,0.00409,0.0041,0.004098,0.004426,0.004428,0.004428,0.004426,0.004426,0.00433,0.004334,0.004324,0.004326,0.004322
644,0.002272,0.002272,0.002272,0.002272,0.002266,0.002202,0.002204,0.002206,0.002202,0.002204,0.00648,0.00648,0.00647,0.006478,0.00649,0.006396,0.006394,0.006392,0.006402,0.006396,0.004272,0.004276,0.004274,0.004282,0.004274,0.004176,0.004178,0.004174,0.004176,0.004176,0.004354,0.004354,0.004358,0.004354,0.004352,0.004282,0.004282,0.004276,0.004274,0.004274
646,0.00243,0.002432,0.00243,0.00243,0.002428,0.002364,0.00237,0.00237,0.002362,0.002368,0.006136,0.006138,0.006128,0.00614,0.00615,0.00607,0.006066,0.006064,0.006074,0.006072,0.004166,0.00417,0.004168,0.004168,0.00417,0.004106,0.004108,0.004106,0.0041,0.0041,0.00414,0.004148,0.004146,0.00414,0.004146,0.004102,0.004096,0.004088,0.00409,0.004096
648,0.002558,0.002556,0.002556,0.002554,0.002556,0.002498,0.002502,0.002502,0.002496,0.002504,0.00586,0.00586,0.005854,0.005864,0.00587,0.005814,0.005808,0.005804,0.005814,0.005812,0.003908,0.003912,0.003912,0.003908,0.003914,0.003894,0.003896,0.003892,0.003882,0.003886,0.003824,0.00383,0.003834,0.003826,0.003832,0.003822,0.003818,0.00381,0.003816,0.00382
650,0.002656,0.002654,0.002654,0.002654,0.00265,0.002608,0.00261,0.002612,0.002608,0.002612,0.005582,0.005584,0.005576,0.005582,0.005592,0.005558,0.00555,0.005546,0.00556,0.005558,0.003494,0.0035,0.003502,0.003496,0.003502,0.00353,0.003532,0.00353,0.003518,0.00352,0.00339,0.003392,0.003392,0.003386,0.003392,0.00342,0.003412,0.003408,0.003412,0.003414
652,0.00272,0.002716,0.002718,0.002718,0.002714,0.00268,0.002686,0.002686,0.00268,0.002682,0.005282,0.00528,0.005272,0.00528,0.005292,0.00527,0.005264,0.00526,0.005276,0.005274,0.002956,0.00296,0.002962,0.002958,0.002964,0.003026,0.003028,0.003026,0.003016,0.003018,0.00287,0.002872,0.002874,0.002862,0.002866,0.00292,0.002912,0.002912,0.002912,0.002916
654,0.002762,0.00276,0.002762,0.00276,0.002758,0.002728,0.002734,0.002732,0.002728,0.002734,0.004982,0.00498,0.004974,0.004982,0.004992,0.004978,0.004974,0.004974,0.004982,0.00498,0.002358,0.002364,0.002364,0.002362,0.002364,0.002444,0.002448,0.002448,0.002438,0.00244,0.002314,0.002318,0.00232,0.00231,0.002316,0.002374,0.002374,0.002372,0.00237,0.002374
656,0.00281,0.002802,0.002806,0.002806,0.002802,0.00277,0.00278,0.002782,0.002776,0.002774,0.0047,0.0047,0.004694,0.004696,0.004704,0.004694,0.00469,0.004692,0.0047,0.004694,0.0017256,0.0017316,0.0017318,0.001731,0.0017326,0.0018104,0.0018124,0.001813,0.0018082,0.001809,0.0017286,0.0017328,0.0017344,0.0017304,0.00173,0.0017954,0.0017926,0.0017962,0.0017932,0.001794
658,0.002846,0.00284,0.002842,0.002844,0.00284,0.00281,0.002816,0.002818,0.002814,0.00281,0.004494,0.004494,0.004486,0.00449,0.0045,0.00448,0.00448,0.004476,0.004488,0.004482,0.0012298,0.001233,0.001234,0.001235,0.0012344,0.001303,0.0013058,0.0013056,0.001302,0.0013048,0.0012594,0.0012666,0.0012646,0.0012552,0.00126,0.001324,0.0013192,0.0013192,0.0013166,0.0013168
660,0.002872,0.00287,0.002874,0.002872,0.002868,0.002832,0.002838,0.00284,0.002838,0.002836,0.00431,0.00431,0.004306,0.004308,0.004316,0.004294,0.004292,0.00429,0.004298,0.004294,0.0008012,0.0008046,0.0008044,0.000806,0.0008046,0.0008624,0.0008668,0.0008632,0.0008618,0.0008646,0.000845,0.0008476,0.0008524,0.0008386,0.000845,0.000899,0.000893,0.0008996,0.0008936,0.000897
662,0.002868,0.002862,0.002872,0.002872,0.002866,0.002834,0.002838,0.00284,0.002838,0.002832,0.004124,0.004122,0.004118,0.00412,0.004128,0.004104,0.004102,0.004104,0.004108,0.004104,0.000464,0.0004664,0.0004672,0.0004684,0.0004658,0.0005066,0.0005106,0.0005076,0.0005082,0.0005094,0.0005094,0.0005144,0.0005168,0.0005054,0.0005138,0.0005476,0.0005446,0.0005486,0.000548,0.0005514
664,0.002788,0.002786,0.002792,0.002794,0.002788,0.002764,0.002772,0.002766,0.002764,0.002762,0.003864,0.003868,0.003858,0.003866,0.003874,0.00386,0.003854,0.003852,0.003856,0.003856,0.0002556,0.0002564,0.0002558,0.0002576,0.0002556,0.0002762,0.0002786,0.0002744,0.000276,0.0002774,0.0003026,0.000307,0.000303,0.0002958,0.0003012,0.0003184,0.0003154,0.0003196,0.0003164,0.000321
666,0.002586,0.002586,0.00259,0.002592,0.002586,0.002572,0.00258,0.002574,0.002572,0.00257,0.003492,0.003494,0.003486,0.003492,0.0035,0.003496,0.003496,0.003484,0.003494,0.003492,0.00017558,0.00017608,0.00017558,0.00017704,0.0001758,0.00018142,0.00018354,0.0001793,0.00018066,0.00018244,0.0002138,0.0002278,0.0002198,0.0002134,0.0002194,0.0002258,0.000225,0.0002276,0.0002218,0.0002228
668,0.002312,0.002312,0.002316,0.002316,0.00231,0.00231,0.002312,0.002306,0.002308,0.002302,0.003062,0.003068,0.00306,0.003068,0.00307,0.003074,0.003072,0.003064,0.003074,0.003072,0.00015238,0.00015372,0.00015456,0.00015482,0.00015316,0.00015324,0.00015556,0.00015374,0.00015392,0.00015564,0.00019206,0.00019812,0.00019696,0.00019358,0.00019302,0.00019768,0.0001972,0.0002008,0.000193,0.00019938
670,0.0019938,0.0019934,0.0019926,0.0019962,0.0019914,0.0019946,0.0019974,0.001993,0.001993,0.0019922,0.002602,0.002606,0.002596,0.0026,0.002606,0.002612,0.00261,0.002608,0.002614,0.002614,0.00014546,0.00014486,0.000144,0.00014642,0.00014446,0.00014222,0.00014548,0.00014346,0.00014376,0.00014456,0.00018324,0.00018658,0.00018976,0.00018218,0.00018758,0.00018808,0.00018354,0.0001901,0.00018286,0.00018762
672,0.0016404,0.0016454,0.0016426,0.0016442,0.001644,0.0016464,0.001656,0.0016476,0.0016494,0.0016484,0.002122,0.002124,0.002118,0.00212,0.002124,0.002136,0.002136,0.002134,0.00214,0.00214,0.00013862,0.00013824,0.00013776,0.00013986,0.00013736,0.00013558,0.00013834,0.00013574,0.00013694,0.00013718,0.0001768,0.0001782,0.00018244,0.00017208,0.00017924,0.00017444,0.00017308,0.00018074,0.00017338,0.00017594
674,0.0012374,0.0012392,0.0012398,0.0012378,0.0012362,0.0012528,0.0012554,0.0012494,0.0012512,0.0012518,0.0015866,0.0015894,0.0015844,0.0015894,0.0015912,0.0016104,0.0016084,0.0016114,0.0016122,0.0016108,0.00013226,0.000131,0.00013216,0.00013368,0.0001313,0.00012666,0.00013184,0.00012974,0.00013122,0.00012912,0.00016498,0.00016464,0.00016862,0.00015902,0.0001676,0.00016854,0.00016106,0.00016566,0.0001647,0.00016464
676,0.0008736,0.000874,0.0008764,0.000873,0.000876,0.0008918,0.0008982,0.0008976,0.0008984,0.0008964,0.0011204,0.0011262,0.0011204,0.0011254,0.0011246,0.0011516,0.0011522,0.0011526,0.0011574,0.0011558,0.00012702,0.00012696,0.00012544,0.00012758,0.00012486,0.0001213,0.0001246,0.00012446,0.0001268,0.00012404,0.00016148,0.00015968,0.00016676,0.00015258,0.00015696,0.00016086,0.000156,0.0001629,0.00015658,0.000156
678,0.000558,0.000562,0.0005672,0.0005638,0.000562,0.000581,0.000588,0.000582,0.0005842,0.0005824,0.000728,0.0007342,0.000728,0.0007334,0.0007312,0.0007614,0.0007628,0.0007588,0.0007654,0.0007662,0.00012206,0.00012206,0.00012112,0.00012122,0.00011988,0.00011674,0.00011908,0.00011792,0.00012092,0.0001181,0.00015266,0.0001513,0.00015672,0.00014768,0.0001531,0.00015292,0.00014762,0.00015514,0.0001463,0.00015028
680,0.0003324,0.0003366,0.0003406,0.0003372,0.0003344,0.0003456,0.0003512,0.0003488,0.0003482,0.000342,0.0004474,0.000453,0.0004486,0.0004516,0.0004488,0.0004698,0.0004694,0.000467,0.0004738,0.0004738,0.00011742,0.00011718,0.00011672,0.0001154,0.00011594,0.00011268,0.00011626,0.00011548,0.0001155,0.00011442,0.0001484,0.0001469,0.0001512,0.00014882,0.000144,0.00014646,0.00014498,0.00015068,0.00014842,0.00014794
682,0.0002216,0.0002236,0.0002252,0.0002218,0.0002208,0.0002226,0.0002232,0.0002204,0.0002268,0.000217,0.0003036,0.0003046,0.0003038,0.0002998,0.0003018,0.0003098,0.0003086,0.0003066,0.0003106,0.0003126,0.00011402,0.00011292,0.000114,0.0001128,0.00011394,0.00010846,0.00011394,0.00011244,0.0001135,0.0001123,0.00014534,0.00014682,0.00015018,0.00014272,0.00014544,0.00014902,0.00013558,0.00014668,0.00014654,0.00014522
684,0.00017858,0.00018562,0.00018408,0.00018392,0.00018078,0.00017856,0.00017714,0.00017414,0.00017454,0.000174,0.0002494,0.0002482,0.0002468,0.0002476,0.0002422,0.0002542,0.0002524,0.0002442,0.0002448,0.0002514,0.00011226,0.00010996,0.00010962,0.00010776,0.00011102,0.00010636,0.0001109,0.0001111,0.00011132,0.0001094,0.0001379,0.00013918,0.0001467,0.00014004,0.00014528,0.0001447,0.00013548,0.00014628,0.00014134,0.00014322
686,0.0001676,0.00017324,0.00016818,0.00016832,0.00016432,0.00016896,0.00016692,0.00015876,0.00016582,0.00015892,0.0002276,0.0002264,0.0002286,0.0002244,0.0002232,0.0002296,0.0002248,0.000222,0.0002246,0.0002238,0.00010798,0.0001069,0.000106,0.00010422,0.00010654,0.00010266,0.00010594,0.00010766,0.00010754,0.0001046,0.00013584,0.00013248,0.000138,0.00013878,0.0001441,0.0001335,0.0001312,0.00013814,0.00013948,0.00013948
688,0.0001575,0.00016182,0.0001606,0.00015504,0.00015326,0.00015606,0.00015526,0.00015128,0.0001553,0.00015452,0.0002112,0.000213,0.0002096,0.000208,0.0002078,0.0002114,0.000211,0.0002066,0.0002072,0.0002082,0.00010328,0.00010288,0.00010232,9.982e-05,0.00010218,9.978e-05,0.00010162,0.0001039,0.00010206,0.00010164,0.00012942,0.00012882,0.00013764,0.00013596,0.00013896,0.00013526,0.00012886,0.0001383,0.0001351,0.0001356
690,0.00014736,0.00015434,0.0001543,0.00015232,0.00014804,0.0001465,0.00015132,0.00014282,0.00014168,0.00014972,0.00019338,0.00019748,0.0001964,0.00019296,0.00019164,0.00019638,0.00019576,0.00019362,0.00019492,0.00019582,9.786e-05,9.696e-05,9.876e-05,9.56e-05,9.816e-05,9.64e-05,9.668e-05,9.996e-05,9.856e-05,9.716e-05,0.00012444,0.00012854,0.00013762,0.0001392,0.00013206,0.00012918,0.00012704,0.00013404,0.0001316,0.00013308
692,0.00013962,0.00014812,0.00014338,0.00014116,0.00014074,0.0001402,0.00014246,0.00013598,0.00013736,0.00013738,0.00017968,0.00017794,0.00018092,0.000181,0.0001792,0.0001857,0.00017856,0.000175,0.0001809,0.00018214,9.448e-05,9.248e-05,9.344e-05,9.14e-05,9.294e-05,9.098e-05,9.236e-05,9.568e-05,9.348e-05,9.384e-05,0.00013068,0.00011994,0.00013216,0.00013466,0.00013448,0.00012902,0.00012192,0.0001293,0.0001363,0.00012526
694,0.00013282,0.00013628,0.0001391,0.00013512,0.00013012,0.00013594,0.00013618,0.0001303,0.00012742,0.00012814,0.00016774,0.0001687,0.00016908,0.00016574,0.00016836,0.00017024,0.0001668,0.00016288,0.00016816,0.0001678,9e-05,8.82e-05,8.892e-05,8.526e-05,8.904e-05,8.774e-05,8.698e-05,9.192e-05,8.876e-05,8.59e-05,0.00012576,0.00011658,0.0001315,0.00013488,0.0001271,0.00012242,0.00011686,0.0001281,0.00012552,0.00012348
696,0.0001277,0.0001323,0.00013148,0.00012274,0.00012518,0.00012462,0.00012704,0.00011972,0.0001202,0.00012132,0.00015364,0.00015492,0.00015898,0.00015264,0.00015364,0.00015738,0.0001546,0.00015206,0.00015426,0.00015836,8.542e-05,8.286e-05,8.49e-05,8.13e-05,8.618e-05,8.336e-05,8.27e-05,8.716e-05,8.492e-05,8.304e-05,0.00012042,0.0001182,0.00012216,0.00012704,0.00012158,0.00011622,0.00012054,0.00012054,0.00011896,0.00011784
698,0.00012296,0.00012984,0.0001212,0.00011788,0.00012644,0.00011728,0.00011976,0.00011538,0.0001144,0.00011758,0.00014104,0.0001404,0.00014706,0.00014692,0.0001404,0.00015056,0.00013996,0.00014152,0.0001467,0.00014404,8.028e-05,7.926e-05,8.196e-05,7.77e-05,8.318e-05,7.866e-05,7.902e-05,8.268e-05,8.074e-05,8.084e-05,0.00012024,0.00011148,0.0001161,0.00012434,0.0001218,0.00011508,0.00011612,0.00011576,0.00012406,0.00010906
700,0.00011342,0.00012008,0.00011064,0.00011022,0.00011526,0.00011432,0.00011608,0.00011554,0.00010462,0.00011146,0.00013532,0.00013018,0.0001358,0.00013164,0.00013732,0.00013662,0.00012948,0.0001324,0.00013522,0.00013348,7.632e-05,7.432e-05,7.778e-05,7.342e-05,7.764e-05,7.618e-05,7.448e-05,7.994e-05,7.612e-05,7.668e-05,0.00012262,0.00010328,0.00011116,0.00012508,0.00012112,0.00010812,0.00010776,0.00011702,0.00011656,0.00010922
702,0.00010718,0.00011484,0.00010398,0.00010996,0.00011226,0.0001083,0.00011054,0.0001037,9.688e-05,0.0001053,0.00012724,0.00012108,0.00013008,0.0001266,0.00012396,0.00013058,0.0001202,0.00012576,0.00012306,0.00012592,7.236e-05,6.928e-05,7.332e-05,6.894e-05,7.16e-05,7.022e-05,7.022e-05,7.334e-05,7.23e-05,7.31e-05,0.0001159,0.00010506,0.00010744,0.00012618,0.0001173,0.00010616,0.00010362,0.00010468,0.0001097,0.00010404
704,0.0001032,0.00010586,0.00010286,0.0001032,0.00010488,0.00010322,0.00010486,9.744e-05,9.348e-05,0.00010242,0.00012308,0.00011078,0.00012198,0.00011714,0.00011828,0.00011882,0.00011348,0.00011774,0.00011984,0.00011672,6.716e-05,6.752e-05,6.706e-05,6.554e-05,6.778e-05,6.604e-05,6.652e-05,6.918e-05,6.872e-05,6.918e-05,0.00010444,9.862e-05,0.00010206,0.00012856,0.00011506,9.58e-05,0.0001001,0.00010438,0.00010776,0.0001046
706,9.862e-05,0.0001075,9.544e-05,9.918e-05,0.0001009,0.00010208,0.00010264,9.338e-05,8.862e-05,9.524e-05,0.00011488,0.00010696,0.00011714,0.00010832,0.00011374,0.0001126,0.00010502,0.00011446,0.00011276,0.00011216,6.48e-05,6.346e-05,6.316e-05,6.148e-05,6.272e-05,6.412e-05,6.178e-05,6.644e-05,6.426e-05,6.35e-05,0.00010272,9.822e-05,0.00010174,0.00011706,0.0001055,9.54e-05,9.762e-05,0.00010276,0.000104,0.0001008
708,9.396e-05,0.00010388,9.626e-05,9.19e-05,9.97e-05,9.246e-05,9.448e-05,8.646e-05,8.512e-05,0.00010098,0.00010776,0.00010238,0.00010988,0.00010698,0.00010858,0.00010942,0.00010076,0.00010932,0.00010722,0.00010326,6.248e-05,6.054e-05,5.992e-05,5.854e-05,6.082e-05,6.308e-05,5.87e-05,6.328e-05,6.046e-05,5.964e-05,0.0001014,9.726e-05,0.00010284,0.0001114,0.0001067,9.196e-05,0.0001001,9.754e-05,0.00010218,9.208e-05
710,9.19e-05,9.438e-05,8.73e-05,8.764e-05,9.352e-05,9.12e-05,8.478e-05,8.612e-05,8.442e-05,8.988e-05,0.00010208,9.912e-05,0.00010798,0.00010414,0.00010606,0.00010534,9.412e-05,0.00010624,0.00010506,0.00010014,5.646e-05,5.586e-05,5.912e-05,5.452e-05,5.52e-05,5.766e-05,5.262e-05,5.79e-05,5.642e-05,5.73e-05,0.00010066,8.84e-05,8.97e-05,0.00011594,0.00010526,9.324e-05,9.28e-05,9.98e-05,0.00010266,8.884e-05
712,9.002e-05,9.04e-05,8.322e-05,8.594e-05,8.526e-05,8.676e-05,8.712e-05,8.61e-05,8.148e-05,9.282e-05,0.00010298,9.572e-05,0.00010604,9.7e-05,0.00010558,0.0001058,9.448e-05,0.0001017,9.958e-05,9.626e-05,5.492e-05,5.388e-05,5.648e-05,5.24e-05,5.274e-05,5.622e-05,4.984e-05,5.432e-05,5.396e-05,5.354e-05,0.0001006,8.566e-05,8.796e-05,0.00011144,9.564e-05,8.954e-05,9.14e-05,8.828e-05,9.668e-05,8.65e-05
714,8.44e-05,8.746e-05,8.218e-05,8.384e-05,8.33e-05,8.044e-05,8.298e-05,7.826e-05,7.524e-05,8.806e-05,9.784e-05,8.952e-05,0.00010176,9.34e-05,0.00010472,9.998e-05,9.386e-05,0.00010248,9.618e-05,9.682e-05,5.01e-05,5.142e-05,5.14e-05,5.11e-05,4.978e-05,5.238e-05,4.606e-05,5.128e-05,5.07e-05,5.048e-05,9.27e-05,8.304e-05,8.636e-05,0.00010048,9.35e-05,8.218e-05,9.142e-05,8.602e-05,8.296e-05,7.898e-05
716,8.112e-05,8.22e-05,7.37e-05,7.926e-05,8.434e-05,7.438e-05,7.348e-05,7.844e-05,7.426e-05,7.97e-05,9.34e-05,8.426e-05,9.882e-05,8.77e-05,9.6e-05,9.19e-05,8.696e-05,9.858e-05,9.54e-05,8.944e-05,4.688e-05,4.91e-05,4.854e-05,4.708e-05,4.772e-05,5.138e-05,4.23e-05,4.846e-05,4.934e-05,4.854e-05,8.644e-05,8.436e-05,7.108e-05,0.00010364,9.34e-05,9.218e-05,8.4e-05,9.078e-05,8.192e-05,7.352e-05
718,7.952e-05,7.242e-05,6.602e-05,7.208e-05,6.948e-05,7.634e-05,7.264e-05,6.724e-05,7.398e-05,8.312e-05,9.536e-05,8.038e-05,8.938e-05,9.048e-05,9.564e-05,8.536e-05,8.328e-05,9.73e-05,8.978e-05,8.832e-05,4.438e-05,4.462e-05,4.526e-05,4.432e-05,4.614e-05,4.786e-05,4.096e-05,4.616e-05,4.186e-05,4.504e-05,8.898e-05,8.776e-05,7.084e-05,9.198e-05,7.942e-05,7.94e-05,8.778e-05,8.376e-05,9.784e-05,6.996e-05
720,7.818e-05,6.652e-05,6.894e-05,7.06e-05,6.032e-05,6.582e-05,6.664e-05,6.53e-05,5.306e-05,8.362e-05,8.616e-05,7.566e-05,8.464e-05,8.592e-05,8.916e-05,8.464e-05,8.17e-05,8.9e-05,7.758e-05,8.322e-05,4.166e-05,4.426e-05,3.962e-05,4.256e-05,4.086e-05,4.434e-05,3.822e-05,4.316e-05,3.962e-05,4.166e-05,7.998e-05,7.748e-05,7.136e-05,8.736e-05,8.456e-05,6.874e-05,8.712e-05,8.316e-05,7.582e-05,6.684e-05
722,6.852e-05,6.016e-05,6.338e-05,6.798e-05,5.952e-05,6.472e-05,6.418e-05,6.212e-05,6.29e-05,7.126e-05,8.422e-05,7.342e-05,8.166e-05,7.324e-05,8.81e-05,7.53e-05,7.62e-05,8.616e-05,7.98e-05,7.752e-05,4.078e-05,4.238e-05,3.972e-05,4.168e-05,3.82e-05,4.504e-05,3.84e-05,4.042e-05,3.674e-05,3.964e-05,7.628e-05,7.118e-05,6.56e-05,8.486e-05,8.318e-05,6.562e-05,8.354e-05,8.224e-05,7.32e-05,6.678e-05
724,6.058e-05,4.944e-05,5.262e-05,5.458e-05,5.502e-05,6.062e-05,5.554e-05,5.808e-05,6.434e-05,7.088e-05,8.054e-05,6.64e-05,7.53e-05,7.05e-05,8.942e-05,7.334e-05,7.366e-05,8.414e-05,7.016e-05,7.612e-05,4.02e-05,4.22e-05,3.864e-05,4.008e-05,3.642e-05,4.586e-05,3.81e-05,3.866e-05,3.78e-05,3.716e-05,7.092e-05,6.776e-05,7.132e-05,8.362e-05,7.226e-05,6.886e-05,8.064e-05,8.204e-05,7.016e-05,6.594e-05
726,5.686e-05,5.238e-05,5.864e-05,5.21e-05,4.26e-05,5.736e-05,4.886e-05,5.93e-05,5.008e-05,6.672e-05,7.692e-05,6.244e-05,7.046e-05,7.176e-05,7.88e-05,6.812e-05,7.14e-05,8.37e-05,6.456e-05,7.498e-05,3.714e-05,4.26e-05,3.692e-05,4.09e-05,3.78e-05,4.356e-05,3.714e-05,4.01e-05,3.84e-05,3.462e-05,7.764e-05,6.886e-05,7.138e-05,7.662e-05,7.314e-05,7.194e-05,8.162e-05,7.566e-05,5.282e-05,5.164e-05
728,5.882e-05,3.878e-05,4.89e-05,5.188e-05,4.336e-05,5.4e-05,4.564e-05,5.334e-05,6.078e-05,6.086e-05,6.836e-05,6.1e-05,6.356e-05,6.78e-05,7.368e-05,6.42e-05,6.922e-05,8.31e-05,6.37e-05,6.922e-05,3.742e-05,4.274e-05,3.754e-05,3.82e-05,3.654e-05,4.474e-05,3.512e-05,3.984e-05,4.056e-05,3.78e-05,6.658e-05,7.414e-05,6.622e-05,7.824e-05,7.142e-05,6.164e-05,6.94e-05,6.14e-05,6.588e-05,5.096e-05
730,5.17e-05,3.734e-05,4.032e-05,4.978e-05,4.788e-05,4.796e-05,4.716e-05,5.404e-05,5.19e-05,6.168e-05,6.974e-05,6.26e-05,5.866e-05,6.994e-05,7.446e-05,6.544e-05,6.546e-05,7.73e-05,6.054e-05,6.298e-05,3.714e-05,3.952e-05,3.854e-05,3.762e-05,3.774e-05,4.404e-05,3.906e-05,3.778e-05,3.894e-05,3.594e-05,7.1e-05,6.59e-05,6.342e-05,6.59e-05,6.23e-05,5.614e-05,7.078e-05,6.352e-05,6.166e-05,5.542e-05
732,5.34e-05,3.69e-05,3.996e-05,4.476e-05,4.03e-05,4.222e-05,3.98e-05,5.5e-05,4.606e-05,5.962e-05,6.636e-05,6.59e-05,5.678e-05,6.468e-05,7.562e-05,6.82e-05,6.948e-05,7.918e-05,6.002e-05,6.252e-05,3.658e-05,3.802e-05,3.498e-05,3.962e-05,3.77e-05,4.134e-05,3.876e-05,3.616e-05,3.598e-05,3.524e-05,7.556e-05,7.132e-05,6.44e-05,5.926e-05,6.426e-05,6.014e-05,6.764e-05,6.456e-05,5.29e-05,5.618e-05
734,4.328e-05,3.418e-05,3.85e-05,3.882e-05,3.19e-05,2.902e-05,4.138e-05,4.63e-05,5.17e-05,5.114e-05,5.782e-05,6.172e-05,5.92e-05,6.674e-05,7.044e-05,6.328e-05,6.926e-05,7.504e-05,5.384e-05,6.504e-05,3.538e-05,3.912e-05,3.402e-05,3.464e-05,3.564e-05,3.856e-05,3.388e-05,3.436e-05,3.408e-05,3.372e-05,6.07e-05,7.842e-05,5.604e-05,4.84e-05,6.07e-05,5.696e-05,6.568e-05,6.284e-05,5.534e-05,6.308e-05
736,3.642e-05,1.601e-05,2.76e-05,2.784e-05,2.884e-05,2.864e-05,3.148e-05,4.03e-05,4.258e-05,4.78e-05,5.878e-05,5.648e-05,5.848e-05,6.518e-05,6.226e-05,6.48e-05,6.08e-05,7.176e-05,4.506e-05,5.904e-05,3.074e-05,3.22e-05,2.834e-05,3.202e-05,3.328e-05,3.544e-05,3.436e-05,2.826e-05,3.008e-05,3.124e-05,5.93e-05,5.794e-05,5.594e-05,3.93e-05,5.156e-05,5.518e-05,7.05e-05,4.72e-05,4.098e-05,5.386e-05
738,3.112e-05,1.3654e-05,3.514e-05,3.058e-05,2.782e-05,2.972e-05,2.266e-05,3.44e-05,3.79e-05,4.408e-05,6.21e-05,5.39e-05,4.924e-05,6.268e-05,5.858e-05,5.478e-05,6.342e-05,6.1e-05,4.476e-05,5.79e-05,2.658e-05,3.19e-05,2.632e-05,3.12e-05,2.68e-05,3.454e-05,3.098e-05,2.616e-05,2.776e-05,2.864e-05,5.462e-05,6.28e-05,4.36e-05,3.342e-05,5.078e-05,4.826e-05,4.422e-05,4.338e-05,3.532e-05,5.112e-05
740,3.14e-05,1.496e-05,2.786e-05,2.362e-05,1.9068e-05,2.282e-05,2.082e-05,3.244e-05,3.858e-05,3.66e-05,5.598e-05,5.22e-05,4.5e-05,5.676e-05,5.366e-05,5.498e-05,6.074e-05,5.52e-05,4.678e-05,5.144e-05,2.73e-05,2.962e-05,2.304e-05,2.524e-05,2.514e-05,3.036e-05,2.77e-05,2.532e-05,2.654e-05,2.588e-05,4.816e-05,5.728e-05,3.768e-05,3.476e-05,4.31e-05,4.37e-05,4.066e-05,4.352e-05,3.744e-05,4.522e-05
742,3.552e-05,1.2956e-05,1.7708e-05,1.2246e-05,1.1806e-05,2.416e-05,1.2496e-05,3.2e-05,2.494e-05,3.64e-05,4.948e-05,5.022e-05,4.556e-05,5.502e-05,5.194e-05,4.794e-05,5.98e-05,5.628e-05,5.148e-05,5.122e-05,2.47e-05,2.76e-05,2.26e-05,2.452e-05,2.316e-05,2.588e-05,2.816e-05,2.672e-05,2.166e-05,2.26e-05,3.464e-05,4.434e-05,4.048e-05,2.904e-05,3.278e-05,3.698e-05,4.602e-05,4.726e-05,3.652e-05,3.744e-05
744,2.564e-05,1.0932e-05,3.236e-05,8.498e-06,1.8582e-05,1.8034e-05,1.0336e-05,2.736e-05,2.638e-05,2.362e-05,4.406e-05,6.91e-05,4.668e-05,6.118e-05,4.616e-05,5.656e-05,6.424e-05,5.6e-05,3.904e-05,4.902e-05,2.168e-05,2.578e-05,2.01e-05,2.184e-05,2.186e-05,2.28e-05,2.742e-05,2.146e-05,1.9956e-05,2.268e-05,3.938e-05,4.966e-05,3.468e-05,2.028e-05,2.918e-05,3.59e-05,3.586e-05,3.964e-05,3.008e-05,4.474e-05
746,2.728e-05,9.878e-06,3.134e-05,1.4762e-05,1.544e-05,1.0014e-05,1.1898e-05,3.346e-05,2.286e-05,2.324e-05,4.5e-05,4.68e-05,4.302e-05,5.3e-05,4.31e-05,5.454e-05,5.59e-05,5.874e-05,4.492e-05,4.688e-05,1.6604e-05,2.346e-05,1.9368e-05,2.044e-05,2.38e-05,1.7744e-05,1.919e-05,1.93e-05,1.8962e-05,2.208e-05,3.204e-05,4.346e-05,4.06e-05,1.7462e-05,3.172e-05,3.828e-05,3.944e-05,3.884e-05,4.208e-05,4.342e-05
748,2.36e-05,9.534e-06,2.47e-05,1.4278e-05,1.0468e-05,1.484e-05,8.3e-06,2.686e-05,2.262e-05,2.224e-05,4.798e-05,5.3e-05,4.648e-05,5.5e-05,4e-05,4.926e-05,5.792e-05,5.504e-05,4.576e-05,5.16e-05,1.8472e-05,2.248e-05,1.647e-05,1.7068e-05,1.9334e-05,1.8276e-05,1.8314e-05,1.8874e-05,1.747e-05,1.8966e-05,3e-05,4.39e-05,2.506e-05,1.7442e-05,1.7538e-05,3.914e-05,2.936e-05,2.572e-05,2.2e-05,3.058e-05
750,2.108e-05,1.8526e-05,3.076e-05,2.306e-05,1.9904e-05,5.22e-06,9.834e-06,2.758e-05,1.5768e-05,1.9682e-05,5.406e-05,6.256e-05,5.02e-05,5.422e-05,3.976e-05,5.406e-05,5.794e-05,5.512e-05,4.558e-05,5.006e-05,1.3352e-05,1.978e-05,1.8636e-05,1.2166e-05,1.6056e-05,1.9288e-05,2.15e-05,1.9228e-05,1.8014e-05,1.7764e-05,3.704e-05,5.14e-05,4.982e-05,1.2262e-05,1.8266e-05,3.32e-05,2.196e-05,2.196e-05,1.4304e-05,3.268e-05
752,2.01e-05,2.022e-05,2.84e-05,9.05e-06,2.14e-05,0,1.278e-05,3.018e-05,1.237e-05,9.074e-06,4.958e-05,6.336e-05,5.024e-05,5.418e-05,2.852e-05,5.122e-05,5.27e-05,6.006e-05,4.308e-05,4.666e-05,1.5514e-05,2.294e-05,1.7672e-05,1.3264e-05,1.8774e-05,1.4692e-05,2.052e-05,2.024e-05,2.182e-05,2.256e-05,1.8486e-05,4.454e-05,4.274e-05,1.339e-05,2.614e-05,4.112e-05,2.856e-05,2.202e-05,4.358e-05,3.564e-05
754,1.2328e-05,1.664e-05,1.241e-05,1.483e-05,8.622e-06,1.1806e-06,1.9912e-05,3.02e-05,2.32e-05,2.564e-05,5.61e-05,7.172e-05,5.056e-05,6.15e-05,3.258e-05,5.628e-05,5.752e-05,5.798e-05,3.584e-05,4.75e-05,1.3436e-05,2.388e-05,1.7644e-05,1.373e-05,1.7748e-05,1.193e-05,1.862e-05,2.012e-05,2.1e-05,2.386e-05,3.264e-05,4.28e-05,3.788e-05,8.218e-06,3.206e-05,3.474e-05,7.148e-06,2.446e-05,3.876e-05,3.842e-05
756,1.3392e-05,2.216e-05,3.198e-05,7.938e-06,1.541e-05,2.318e-06,9.27e-06,2.098e-05,1.4458e-05,2.098e-05,5.694e-05,6.232e-05,4.826e-05,5.364e-05,3.402e-05,6.124e-05,5.758e-05,5.122e-05,4.308e-05,4.594e-05,1.4674e-05,2.164e-05,1.796e-05,1.3664e-05,1.8214e-05,1.108e-05,1.8612e-05,2.39e-05,1.7998e-05,2.114e-05,3.262e-05,5.036e-05,4.172e-05,8.478e-06,2.806e-05,4.176e-05,1.858e-05,1.428e-05,3.9e-05,2.886e-05
758,1.4894e-05,3.058e-05,2.824e-05,1.3348e-05,3.454e-05,1.539e-06,1.3852e-05,2.38e-05,6.238e-06,1.7642e-05,5.688e-05,6.044e-05,5.154e-05,5.272e-05,3.792e-05,6.042e-05,5.508e-05,4.384e-05,5.036e-05,4.8e-05,1.2422e-05,2.128e-05,1.6022e-05,1.3682e-05,1.9134e-05,1.3192e-05,1.857e-05,2.126e-05,1.9232e-05,2.398e-05,3.736e-05,4.044e-05,3.736e-05,2.076e-05,3.018e-05,6.3e-05,3.354e-05,2.744e-05,4.468e-05,4.064e-05
760,1.649e-05,3.388e-05,4.07e-05,2.618e-05,3.254e-05,2.226e-05,2.38e-05,3.112e-05,3.97e-06,9.54e-06,4.842e-05,6.194e-05,5.848e-05,6.014e-05,4.194e-05,5.644e-05,7.016e-05,4.704e-05,5.002e-05,5.276e-05,2.038e-05,2.258e-05,1.52e-05,1.1884e-05,1.8092e-05,1.0938e-05,1.6734e-05,2.286e-05,2.042e-05,1.9898e-05,2.492e-05,2.832e-05,5.562e-05,3.124e-06,2.148e-05,5.316e-05,3.244e-05,2.348e-05,5.042e-05,5.976e-05
762,1.4338e-05,3.578e-05,4.476e-05,0,1.8836e-05,7.588e-06,2.542e-05,3.55e-05,5.266e-06,2.542e-05,5.444e-05,6.72e-05,6.134e-05,5.638e-05,3.286e-05,5.494e-05,5.396e-05,6.224e-05,4.566e-05,4.466e-05,1.4458e-05,2.554e-05,1.525e-05,1.295e-05,1.6666e-05,7.876e-06,1.9618e-05,2.63e-05,2.048e-05,2.276e-05,6.178e-05,4.546e-05,6.014e-05,6.972e-06,3.608e-05,4.886e-05,3.118e-05,2.19e-05,6.06e-05,4.208e-05
764,2.108e-05,4.798e-05,4.076e-05,0,3.394e-05,8.362e-06,3.376e-05,1.7694e-05,2.418e-05,2.182e-05,6.56e-05,6.756e-05,6.572e-05,5.78e-05,3.01e-05,5.196e-05,5.062e-05,5.226e-05,5.176e-05,5.042e-05,1.6866e-05,2.524e-05,1.509e-05,1.4694e-05,2.226e-05,4.702e-06,1.6352e-05,2.246e-05,2.414e-05,2.186e-05,4.156e-05,3.362e-05,5.756e-05,2.554e-05,3.076e-05,6.216e-05,4.26e-05,2.658e-05,6.446e-05,5.72e-05
766,1.057e-05,4.558e-05,4.458e-05,1.4702e-05,2.372e-05,1.772e-05,3.922e-05,2.474e-05,1.3788e-05,2.212e-05,7.764e-05,6.764e-05,5.362e-05,5.778e-05,3.216e-05,5.848e-05,4.674e-05,4.348e-05,5.09e-05,5.168e-05,1.9678e-05,2.638e-05,2.006e-05,1.2288e-05,1.7184e-05,5.586e-06,1.9362e-05,2.152e-05,2.222e-05,2.304e-05,6.582e-05,3.418e-05,6.034e-05,1.2898e-05,2.288e-05,6.144e-05,6.202e-05,3.06e-05,6.726e-05,8.442e-05
768,1.6296e-05,7.084e-05,6.788e-05,4.136e-06,3.642e-05,1.7564e-05,3.67e-05,3.948e-05,1.6244e-06,9.548e-06,6.744e-05,7.136e-05,5.292e-05,5.39e-05,4.352e-05,5.622e-05,4.86e-05,3.842e-05,5.666e-05,5.892e-05,1.9242e-05,2.39e-05,1.5662e-05,2.01e-05,1.736e-05,1.785e-06,1.6212e-05,1.9602e-05,1.7678e-05,2.548e-05,3.03e-05,3.79e-05,7.334e-05,3.258e-05,2.402e-05,5.162e-05,7.676e-05,3.74e-05,6.816e-05,7.332e-05
770,1.4096e-05,8.092e-05,6.59e-05,7.244e-06,3.638e-05,2.432e-05,5.922e-05,4.086e-05,1.9666e-05,2.142e-05,6.03e-05,6.578e-05,5.006e-05,4.934e-05,3.716e-05,5.356e-05,2.82e-05,3.55e-05,6.83e-05,3.408e-05,1.646e-05,3.238e-05,2.206e-05,1.4454e-05,2.174e-05,2.304e-07,1.4054e-05,2.048e-05,1.8426e-05,2.796e-05,3.634e-05,3.118e-05,8.13e-05,6.83e-05,4.424e-05,9.762e-05,6.322e-05,2.426e-05,8.652e-05,5.982e-05
772,2.56e-05,7.68e-05,5.354e-05,0,3.028e-05,4.4e-05,3.942e-05,4.12e-05,1.7474e-05,3.242e-05,6.298e-05,6.082e-05,5.69e-05,4.894e-05,3.618e-05,5.792e-05,2.11e-05,2.76e-05,4.61e-05,4.192e-05,2.468e-05,2.41e-05,2.41e-05,1.8e-05,1.6882e-05,5.87e-07,1.3728e-05,1.7554e-05,2.334e-05,2.442e-05,5.392e-05,4.516e-05,9.59e-05,5.014e-05,2.82e-05,8.038e-05,7.296e-05,3.122e-05,0.00010176,8.584e-05
774,3.922e-05,0.00010014,7.058e-05,1.0954e-05,4.978e-05,5.29e-05,4.472e-05,2.678e-05,1.4834e-05,3.41e-05,8.53e-05,7.342e-05,5.754e-05,4.776e-05,4.174e-05,5.792e-05,2.038e-05,3.784e-05,3.618e-05,5.228e-05,2.056e-05,2.232e-05,2.232e-05,1.6812e-05,1.7276e-05,0,1.4238e-05,1.4362e-05,1.8164e-05,2.162e-05,7.616e-05,4.374e-05,8.868e-05,6.694e-05,3.228e-05,9.194e-05,7.39e-05,4.812e-05,9.078e-05,8.46e-05
776,4.348e-05,8.824e-05,6.234e-05,1.4982e-05,5.66e-05,5.834e-05,4.656e-05,1.6592e-05,9.53e-06,3.3e-05,8.552e-05,6.656e-05,6.162e-05,5.31e-05,3.934e-05,4.894e-05,1.4512e-05,4.326e-05,5e-05,3.912e-05,1.796e-05,2.43e-05,2.34e-05,1.1302e-05,3.066e-05,0,7.672e-06,1.1596e-05,2.442e-05,2.386e-05,5.174e-05,5.406e-05,7.798e-05,8.942e-05,4.624e-05,7.96e-05,7.976e-05,4.338e-05,0.00011372,0.00010582
778,2.036e-05,0.00011398,7.454e-05,5.206e-06,4.854e-05,7.21e-05,6.106e-05,5.132e-05,2.21e-05,3.86e-05,7.892e-05,6.026e-05,2.848e-05,5.076e-05,5.862e-05,2.522e-05,3.934e-06,3.504e-05,5.73e-05,5.762e-05,1.8634e-05,1.9032e-05,1.7974e-05,1.3914e-05,1.9036e-05,2.704e-07,2.93e-05,9.454e-06,2.014e-05,2.084e-05,7e-05,2.64e-05,6.426e-05,7.63e-05,6.598e-05,9.04e-05,6.962e-05,5.67e-05,0.00010778,0.00012856
780,2.642e-05,0.00012172,6.584e-05,1.603e-05,7.43e-05,8.69e-05,2.946e-05,3.052e-05,2.426e-05,5.468e-05,6.646e-05,6.71e-05,2.34e-05,4.942e-05,3.928e-05,4.222e-05,1.0804e-05,1.7022e-05,4.616e-05,3.158e-05,1.6448e-05,2.114e-05,1.559e-05,2.026e-05,2.782e-05,7.426e-07,1.9914e-05,6.818e-06,1.3656e-05,2.152e-05,8.516e-05,5.362e-05,9.606e-05,9.92e-05,8.516e-05,9.624e-05,7.828e-05,6.622e-05,0.0001013,0.0001156
