Wavelength [nm],Background (Mel),Modulation (Mel),Background (LMS),Modulation (LMS)380,1.1038e-05,2.164e-06,8.068e-06,8.75e-06,5.99e-06,9.038e-06,5.812e-06,1.4934e-05,1.3364e-05,7.282e-06,1.2668e-05,1.0746e-05,1.4712e-05,9.048e-06,9.344e-06,8.4e-06,1.1466e-05,1.2698e-05,5.288e-06,9.398e-06,2.756e-06,5.192e-06,1.2328e-06,2.904e-06,3.126e-06,5.828e-06,8.598e-06,6.786e-06,5.884e-06,6.804e-06,2.712e-05,2.152e-05,1.5498e-05,2.214e-05,1.6984e-05,2.068e-05,7.552e-06,1.766e-05,1.8098e-05,9.12e-06
382,4.99e-06,1.917e-06,7.746e-06,3.834e-06,6.408e-06,9.472e-06,7.71e-06,9.25e-06,9.474e-06,7.49e-06,1.153e-05,1.1386e-05,1.4348e-05,7.562e-06,8.504e-06,7.99e-06,9.096e-06,1.5894e-05,5.186e-06,1.36e-05,3.064e-06,4.362e-06,2.398e-06,6.01e-07,2.734e-06,5.822e-06,8.018e-06,5.968e-06,5.602e-06,5.162e-06,2.692e-05,1.6904e-05,1.2228e-05,1.9922e-05,1.4652e-05,2.168e-05,1.3124e-05,1.883e-05,1.983e-05,1.0128e-05
384,1.7734e-06,4.504e-06,7.966e-06,4.292e-06,3.674e-06,7.688e-06,6.858e-06,6.208e-06,1.203e-05,8.09e-06,1.2936e-05,1.1202e-05,1.2518e-05,6.238e-06,5.838e-06,7.162e-06,1.159e-05,1.2154e-05,8.304e-06,1.352e-05,2.738e-06,4.836e-06,2.468e-06,1.0274e-06,3.56e-06,6.386e-06,8.128e-06,6.11e-06,6.11e-06,6.216e-06,3.01e-05,1.5164e-05,1.3846e-05,1.9298e-05,9.876e-06,1.7122e-05,9.17e-06,1.9452e-05,1.9738e-05,7.396e-06
386,2.834e-06,5.224e-06,7.366e-06,6.26e-06,3.508e-06,8.92e-06,6.412e-06,7.008e-06,9.618e-06,7.008e-06,1.3044e-05,8.122e-06,1.2524e-05,7.572e-06,7.708e-06,8.136e-06,1.2404e-05,8.93e-06,7.708e-06,1.1056e-05,3.734e-06,4.118e-06,2.4e-06,1.7508e-06,4.198e-06,6.566e-06,7.858e-06,5.978e-06,5.814e-06,7.216e-06,2.55e-05,1.8718e-05,1.4936e-05,2.344e-05,1.2924e-05,1.48e-05,8.518e-06,2.082e-05,1.9432e-05,4.712e-06
388,1.205e-06,7.82e-06,6.894e-06,6.92e-06,3.31e-06,7.162e-06,6.214e-06,4.056e-06,1.1824e-05,8.392e-06,1.353e-05,8.438e-06,1.4424e-05,8.274e-06,8e-06,7.45e-06,1.1524e-05,1.1516e-05,5.524e-06,1.1532e-05,3.668e-06,4.138e-06,1.976e-06,8.5e-07,4.236e-06,6e-06,8.688e-06,5.276e-06,5.584e-06,6.412e-06,2.624e-05,1.7608e-05,1.0064e-05,2.162e-05,1.4058e-05,1.3714e-05,1.1282e-05,1.9742e-05,1.8948e-05,8.058e-06
390,1.7972e-06,6.74e-06,3.974e-06,3.628e-06,5.706e-06,6.628e-06,6.094e-06,2.344e-06,1.214e-05,4.204e-06,1.0242e-05,8.802e-06,1.2224e-05,7.332e-06,7.81e-06,5.958e-06,9.902e-06,1.0928e-05,6.062e-06,1.089e-05,3.292e-06,3.17e-06,1.699e-06,4.438e-07,3.85e-06,6.24e-06,8.054e-06,4.638e-06,5.654e-06,6.434e-06,2.528e-05,1.5106e-05,1.446e-05,1.939e-05,1.1492e-05,1.2242e-05,8.688e-06,1.7894e-05,2.052e-05,8.896e-06
392,4.532e-06,6.754e-06,3.126e-06,7.546e-06,5.366e-06,5.866e-06,5.63e-06,2.122e-06,1.1662e-05,3.604e-06,1.108e-05,5.592e-06,1.148e-05,7.166e-06,6.262e-06,9.63e-06,1.206e-05,9.204e-06,6.774e-06,9.514e-06,2.934e-06,2.784e-06,2.352e-06,1.7944e-06,4.258e-06,5.256e-06,7.104e-06,4.932e-06,6.352e-06,5.628e-06,2.294e-05,1.4786e-05,2.186e-05,2.064e-05,9.19e-06,1.313e-05,6.95e-06,1.4548e-05,1.85e-05,7.598e-06
394,2.244e-06,4.874e-06,2.43e-06,6.752e-06,5.078e-06,3.782e-06,4.848e-06,2.23e-06,1.3958e-05,7.076e-06,1.0222e-05,5.686e-06,9.776e-06,6.514e-06,9.552e-06,1.0026e-05,1.2272e-05,8.978e-06,8.978e-06,1.0026e-05,3.838e-06,3.984e-06,1.6138e-06,9.708e-07,3.814e-06,3.836e-06,6.124e-06,6.316e-06,6.254e-06,4.9e-06,1.9536e-05,9.206e-06,1.7422e-05,1.6758e-05,1.1802e-05,1.5318e-05,8.036e-06,1.2934e-05,1.2812e-05,1.0546e-05
396,3.85e-06,2.978e-06,2.144e-06,2.226e-06,2.5e-06,7.124e-06,5.486e-06,8.546e-07,9.008e-06,5.304e-06,1.0312e-05,6.284e-06,1.106e-05,8.102e-06,6.778e-06,8.53e-06,1.2286e-05,7.094e-06,1.111e-05,9.56e-06,3.29e-06,3.724e-06,2.114e-06,2.152e-06,4.83e-06,6.186e-06,7.05e-06,4.576e-06,5.942e-06,4.248e-06,1.761e-05,1.4318e-05,1.8114e-05,2.234e-05,1.4688e-05,1.488e-05,9.47e-06,1.3168e-05,1.7362e-05,8.684e-06
398,5.752e-06,5.346e-06,2.022e-06,7.544e-06,3.932e-06,6.322e-06,3.62e-06,3.434e-06,1.1404e-05,5.872e-06,9.428e-06,7.438e-06,1.0144e-05,6.576e-06,6.288e-06,1.113e-05,7.568e-06,7.424e-06,9.522e-06,8.54e-06,3.26e-06,2.71e-06,1.2082e-06,2.336e-06,3.978e-06,5.798e-06,6.722e-06,3.828e-06,4.794e-06,5.394e-06,1.4522e-05,1.1326e-05,1.7e-05,1.9874e-05,1.3302e-05,1.628e-05,1.0588e-05,1.3142e-05,1.8172e-05,5.052e-06
400,3.46e-06,6.288e-06,2.88e-06,6.506e-06,8.706e-07,2.616e-06,2.766e-06,2.318e-06,8.224e-06,3.066e-06,1.0252e-05,6.194e-06,9.96e-06,8.446e-06,9.238e-06,1.1022e-05,9.522e-06,7.906e-06,9.924e-06,8.54e-06,3.188e-06,2.26e-06,1.6966e-06,2.018e-06,4.14e-06,6.96e-06,6.91e-06,3.58e-06,4.946e-06,4.598e-06,1.7232e-05,6.794e-06,1.4642e-05,1.3768e-05,1.1168e-05,1.0654e-05,1.2978e-05,1.1138e-05,1.511e-05,6.974e-06
402,4.758e-06,5.838e-06,7.77e-07,3.41e-06,3.126e-06,3.93e-06,3.022e-06,3.626e-06,8.158e-06,3.424e-06,1.0098e-05,5.168e-06,7.188e-06,6.916e-06,8.888e-06,9.562e-06,1.065e-05,6.996e-06,9.562e-06,8.162e-06,3.562e-06,2.344e-06,2.652e-06,1.6188e-06,4.052e-06,5.86e-06,6.696e-06,3.316e-06,4.588e-06,3.08e-06,1.4712e-05,5.492e-06,1.7486e-05,1.4478e-05,1.201e-05,1.4352e-05,1.2394e-05,1.109e-05,1.8264e-05,9.652e-06
404,3.702e-06,4.752e-06,9.072e-07,6.876e-06,3.54e-06,5.828e-06,4.666e-06,4.166e-06,8.242e-06,3.43e-06,8.018e-06,5.536e-06,6.848e-06,5.53e-06,8.02e-06,1.0314e-05,1.0076e-05,7.292e-06,1.0086e-05,9.576e-06,3.222e-06,1.8952e-06,2.782e-06,1.9006e-06,3.684e-06,5.318e-06,5.574e-06,4.208e-06,4.688e-06,2.584e-06,1.2826e-05,8.412e-06,1.4588e-05,1.531e-05,1.5926e-05,1.5728e-05,1.3516e-05,1.2258e-05,1.567e-05,8.828e-06
406,3.68e-06,1.0042e-05,0,8.028e-06,3.058e-06,4.73e-06,6.084e-06,3.672e-06,9.554e-06,5.394e-06,6.774e-06,4.752e-06,7.398e-06,6.236e-06,8.096e-06,1.057e-05,8.992e-06,6.046e-06,1.0264e-05,6.336e-06,3.366e-06,8.794e-07,1.7818e-06,2.046e-06,3.288e-06,5.118e-06,6.132e-06,4.652e-06,5.06e-06,2.294e-06,1.1416e-05,6.82e-06,1.0394e-05,1.8456e-05,1.7994e-05,1.4774e-05,1.273e-05,1.2282e-05,1.372e-05,1.1388e-05
408,4.308e-06,7.468e-06,6.428e-07,6.054e-06,3.894e-06,4.022e-06,6.476e-06,2.68e-06,7.608e-06,3.14e-06,9.292e-06,7.354e-06,5.104e-06,6.434e-06,1.0424e-05,9.83e-06,8.45e-06,6.548e-06,9.402e-06,6.198e-06,3.21e-06,7.42e-07,1.1498e-06,1.696e-06,2.738e-06,4.384e-06,5.574e-06,3.718e-06,4.164e-06,1.9686e-06,1.3632e-05,9.902e-06,1.8004e-05,1.5714e-05,1.948e-05,1.5186e-05,9.128e-06,1.345e-05,1.6336e-05,8.264e-06
410,5.204e-06,7.232e-06,1.1826e-06,6.464e-06,3.44e-06,8.298e-06,7.172e-06,4.052e-06,9.022e-06,5.474e-06,8.162e-06,5.46e-06,4.418e-06,7.654e-06,9.906e-06,1.0122e-05,6.8e-06,7.476e-06,9.46e-06,7.19e-06,2.982e-06,1.5606e-06,1.8212e-06,2.552e-06,2.93e-06,3.868e-06,3.902e-06,4.016e-06,5.674e-06,2.714e-06,8.448e-06,1.4992e-05,1.7668e-05,1.6838e-05,2.03e-05,1.7392e-05,1.161e-05,1.3808e-05,1.3306e-05,1.4332e-05
412,4.954e-06,8.756e-06,4.218e-06,9.174e-06,6.69e-06,6.528e-06,8.972e-06,4.072e-06,8.416e-06,5.952e-06,6.428e-06,5.726e-06,5.234e-06,6.262e-06,1.001e-05,1.1956e-05,7.626e-06,8.572e-06,9.444e-06,6.466e-06,2.73e-06,1.495e-06,2.104e-06,2.392e-06,2.416e-06,3.93e-06,4.512e-06,2.952e-06,3.812e-06,2.156e-06,1.288e-05,1.4828e-05,1.324e-05,1.7702e-05,2.272e-05,1.8778e-05,1.504e-05,1.435e-05,1.8734e-05,1.6242e-05
414,1.3136e-05,1.5566e-05,9.396e-06,1.3258e-05,1.3052e-05,1.1452e-05,1.4908e-05,1.2594e-05,1.24e-05,9.976e-06,1.0166e-05,6.556e-06,6.87e-06,8.392e-06,1.1106e-05,1.1934e-05,8.902e-06,9.094e-06,9.418e-06,8.042e-06,2.838e-06,1.305e-06,3.212e-06,2.728e-06,3.034e-06,3.704e-06,3.798e-06,2.556e-06,3.538e-06,1.704e-06,2.154e-05,2.414e-05,2.374e-05,2.624e-05,3.092e-05,2.386e-05,2.476e-05,2.244e-05,2.458e-05,2.612e-05
416,3.25e-05,3.378e-05,2.708e-05,3.272e-05,3.112e-05,2.662e-05,3.122e-05,2.6e-05,2.798e-05,2.624e-05,1.3942e-05,1.0944e-05,1.1352e-05,1.2216e-05,1.4914e-05,1.4882e-05,1.306e-05,1.2e-05,1.2962e-05,1.1522e-05,3.574e-06,7.518e-07,3.426e-06,3.206e-06,3.464e-06,3.64e-06,4.426e-06,3.35e-06,4.22e-06,1.9846e-06,4.542e-05,4.522e-05,4.998e-05,5.184e-05,5.246e-05,4.576e-05,4.544e-05,4.48e-05,4.592e-05,4.35e-05
418,7.068e-05,7.03e-05,6.776e-05,6.96e-05,6.796e-05,6.104e-05,6.602e-05,6.142e-05,6.212e-05,6.162e-05,2.324e-05,2.112e-05,2.138e-05,2.196e-05,2.474e-05,2.478e-05,2.218e-05,2.282e-05,2.306e-05,1.9072e-05,4.18e-06,1.9374e-06,3.846e-06,4.206e-06,3.726e-06,4.808e-06,5.296e-06,4.266e-06,4.854e-06,3.338e-06,9.742e-05,9.64e-05,0.0001019,0.00010098,0.0001063,9.248e-05,9.148e-05,9.386e-05,9.248e-05,9.048e-05
420,0.00012858,0.00012824,0.00012758,0.0001274,0.00012882,0.00011674,0.00012252,0.00011902,0.00011798,0.00011794,4.052e-05,3.77e-05,3.73e-05,3.8e-05,3.978e-05,3.942e-05,3.52e-05,3.722e-05,3.912e-05,3.306e-05,4.86e-06,3.92e-06,5.25e-06,5.622e-06,5.58e-06,5.968e-06,6.836e-06,5.248e-06,5.902e-06,4.852e-06,0.0001795,0.0001841,0.00018304,0.00018308,0.00018802,0.00017026,0.00016846,0.00017122,0.00017064,0.00017044
422,0.0002016,0.0002018,0.00019738,0.00019946,0.00019986,0.0001863,0.00019366,0.00018794,0.00018762,0.00018692,5.938e-05,5.466e-05,5.532e-05,5.756e-05,5.776e-05,5.822e-05,5.312e-05,5.62e-05,5.582e-05,5.25e-05,7.274e-06,5.63e-06,7.738e-06,7.382e-06,7.702e-06,7.228e-06,8.598e-06,6.344e-06,7.602e-06,6.168e-06,0.0002958,0.0002996,0.0002988,0.000297,0.0003036,0.0002806,0.000281,0.0002776,0.00028,0.0002778
424,0.0002734,0.000274,0.0002696,0.0002706,0.0002734,0.0002584,0.0002642,0.000259,0.000257,0.0002592,7.628e-05,7.468e-05,7.438e-05,7.598e-05,7.678e-05,7.532e-05,7.266e-05,7.358e-05,7.466e-05,7.188e-05,1.0002e-05,7.88e-06,9.198e-06,9.696e-06,9.418e-06,9.304e-06,1.0174e-05,9.574e-06,1.025e-05,8.26e-06,0.0004386,0.0004458,0.0004426,0.0004446,0.0004518,0.0004228,0.0004232,0.0004184,0.0004198,0.0004164
426,0.0003408,0.00034,0.0003368,0.0003378,0.0003392,0.0003252,0.0003312,0.0003266,0.0003258,0.0003258,9.484e-05,9.326e-05,9.168e-05,9.428e-05,9.582e-05,9.314e-05,8.852e-05,9.32e-05,9.446e-05,9.046e-05,1.2544e-05,1.1484e-05,1.3714e-05,1.3326e-05,1.2402e-05,1.228e-05,1.28e-05,1.3006e-05,1.3452e-05,1.1084e-05,0.0006228,0.0006274,0.0006292,0.000625,0.0006326,0.0005982,0.0006002,0.0005984,0.0005992,0.0005988
428,0.0004018,0.0003992,0.000397,0.0003962,0.000398,0.0003862,0.000392,0.0003882,0.0003872,0.0003866,0.00011192,0.00011074,0.0001097,0.00011074,0.00011076,0.00011076,0.00010944,0.00010948,0.00011144,0.0001074,1.6814e-05,1.5266e-05,1.6906e-05,1.764e-05,1.6624e-05,1.6252e-05,1.6534e-05,1.559e-05,1.659e-05,1.5458e-05,0.0008274,0.0008276,0.000829,0.0008268,0.0008344,0.0007968,0.0007992,0.000797,0.0007986,0.0007966
430,0.0004428,0.0004416,0.0004388,0.000439,0.0004412,0.0004302,0.0004376,0.0004326,0.0004304,0.0004324,0.0001235,0.00012316,0.00012288,0.00012324,0.0001249,0.000124,0.0001212,0.00012188,0.00012402,0.00011992,1.9966e-05,1.9102e-05,2.072e-05,2.166e-05,2.026e-05,1.9646e-05,2.006e-05,1.9276e-05,2.062e-05,1.8986e-05,0.0009952,0.0009958,0.0009978,0.0009942,0.001001,0.0009706,0.0009714,0.0009676,0.0009698,0.0009682
432,0.000449,0.0004476,0.0004458,0.0004458,0.0004474,0.0004424,0.0004482,0.0004458,0.000442,0.0004446,0.00012604,0.00012504,0.00012448,0.00012546,0.00012646,0.00012722,0.0001249,0.00012592,0.00012842,0.0001247,2.324e-05,2.218e-05,2.39e-05,2.446e-05,2.262e-05,2.22e-05,2.322e-05,2.234e-05,2.338e-05,2.186e-05,0.00109,0.0010942,0.0010918,0.0010882,0.0010962,0.0010756,0.0010772,0.0010734,0.0010758,0.0010748
434,0.0003992,0.0003958,0.0003962,0.0003944,0.0003972,0.0004026,0.0004082,0.0004046,0.0004012,0.0004036,0.00011508,0.00011484,0.00011274,0.00011336,0.00011506,0.00011852,0.0001156,0.000117,0.00011946,0.0001154,2.534e-05,2.44e-05,2.61e-05,2.65e-05,2.448e-05,2.48e-05,2.6e-05,2.496e-05,2.568e-05,2.442e-05,0.0010902,0.0010918,0.0010934,0.0010894,0.0010968,0.001089,0.0010922,0.0010858,0.0010884,0.00109
436,0.0002946,0.0002938,0.0002926,0.0002912,0.0002944,0.000306,0.0003136,0.0003072,0.0003058,0.0003086,9.096e-05,9.126e-05,8.914e-05,9.016e-05,9.028e-05,9.586e-05,9.332e-05,9.544e-05,9.718e-05,9.374e-05,2.636e-05,2.59e-05,2.766e-05,2.808e-05,2.652e-05,2.626e-05,2.746e-05,2.7e-05,2.758e-05,2.64e-05,0.0010064,0.0010054,0.0010066,0.0010066,0.0010142,0.0010178,0.0010206,0.001016,0.0010192,0.0010178
438,0.00017878,0.00017848,0.00017646,0.00017564,0.00017778,0.00019028,0.00019716,0.00019284,0.00019098,0.0001924,6.402e-05,6.434e-05,6.314e-05,6.266e-05,6.326e-05,6.978e-05,6.586e-05,6.74e-05,6.948e-05,6.6e-05,2.83e-05,2.738e-05,2.868e-05,2.906e-05,2.75e-05,2.8e-05,2.796e-05,2.776e-05,2.838e-05,2.81e-05,0.0008698,0.0008698,0.000869,0.0008696,0.0008764,0.0008888,0.0008904,0.0008894,0.0008882,0.0008882
440,9.522e-05,9.324e-05,9.112e-05,9.022e-05,9.208e-05,9.83e-05,0.00010518,0.0001007,9.786e-05,0.0001023,4.554e-05,4.472e-05,4.404e-05,4.566e-05,4.53e-05,4.818e-05,4.394e-05,4.8e-05,4.694e-05,4.68e-05,2.866e-05,2.848e-05,2.956e-05,2.966e-05,2.83e-05,2.92e-05,2.912e-05,2.892e-05,2.906e-05,2.872e-05,0.0006918,0.0006932,0.00069,0.0006902,0.0006944,0.000716,0.0007182,0.0007156,0.0007162,0.0007156
442,5.8e-05,5.534e-05,5.224e-05,5.278e-05,5.548e-05,5.344e-05,5.966e-05,5.436e-05,5.242e-05,5.622e-05,3.832e-05,3.96e-05,3.776e-05,3.854e-05,3.988e-05,4.028e-05,3.89e-05,3.796e-05,3.856e-05,3.806e-05,2.89e-05,2.884e-05,2.976e-05,3e-05,2.872e-05,2.886e-05,3.006e-05,2.922e-05,2.932e-05,2.878e-05,0.0004748,0.0004744,0.0004728,0.0004766,0.0004776,0.000503,0.0005042,0.0005048,0.0005038,0.000504
444,5.086e-05,4.848e-05,4.648e-05,4.614e-05,4.938e-05,4.474e-05,4.908e-05,4.652e-05,4.584e-05,4.712e-05,4.022e-05,4.052e-05,3.738e-05,3.772e-05,3.944e-05,3.932e-05,3.976e-05,3.86e-05,3.976e-05,3.836e-05,3.004e-05,3.042e-05,3.098e-05,3.12e-05,2.94e-05,2.982e-05,3.03e-05,2.97e-05,3.022e-05,2.984e-05,0.0002898,0.0002892,0.0002888,0.0002918,0.0002924,0.0003128,0.0003144,0.0003164,0.0003144,0.0003144
446,5.134e-05,5.042e-05,4.918e-05,4.864e-05,4.996e-05,4.702e-05,4.878e-05,4.716e-05,4.644e-05,4.816e-05,4.196e-05,4.26e-05,4.052e-05,4.094e-05,4.242e-05,4.188e-05,4.112e-05,4.136e-05,4.162e-05,4.14e-05,3.17e-05,3.22e-05,3.236e-05,3.25e-05,3.104e-05,3.118e-05,3.15e-05,3.112e-05,3.138e-05,3.164e-05,0.00016486,0.00016286,0.00016264,0.0001629,0.00016392,0.00017692,0.00017998,0.00017838,0.00017664,0.00017878
448,5.338e-05,5.27e-05,5.208e-05,5.126e-05,5.27e-05,5.098e-05,5.208e-05,5.128e-05,4.93e-05,5.274e-05,4.534e-05,4.58e-05,4.468e-05,4.496e-05,4.67e-05,4.558e-05,4.418e-05,4.49e-05,4.54e-05,4.382e-05,3.468e-05,3.5e-05,3.534e-05,3.538e-05,3.398e-05,3.368e-05,3.448e-05,3.42e-05,3.394e-05,3.406e-05,0.0001098,0.00010704,0.00010652,0.00010704,0.00010826,0.00011254,0.0001133,0.00011606,0.00011166,0.00011422
450,5.91e-05,5.514e-05,5.564e-05,5.5e-05,5.876e-05,5.572e-05,5.608e-05,5.606e-05,5.366e-05,5.66e-05,4.998e-05,5.14e-05,4.904e-05,4.992e-05,5.038e-05,4.986e-05,4.76e-05,4.856e-05,4.992e-05,4.698e-05,3.846e-05,3.908e-05,3.952e-05,3.97e-05,3.742e-05,3.796e-05,3.742e-05,3.796e-05,3.724e-05,3.808e-05,9.906e-05,9.602e-05,9.348e-05,9.674e-05,9.65e-05,9.578e-05,9.774e-05,9.994e-05,9.568e-05,9.854e-05
452,6.118e-05,5.936e-05,5.914e-05,5.898e-05,6.18e-05,5.902e-05,5.742e-05,5.754e-05,5.57e-05,5.838e-05,5.39e-05,5.652e-05,5.44e-05,5.394e-05,5.472e-05,5.266e-05,5.168e-05,5.14e-05,5.328e-05,5.126e-05,4.194e-05,4.232e-05,4.268e-05,4.27e-05,4.1e-05,4.082e-05,4.088e-05,4.128e-05,4.1e-05,4.176e-05,0.00010052,9.712e-05,9.19e-05,9.572e-05,9.56e-05,9.46e-05,9.774e-05,9.844e-05,9.386e-05,9.672e-05
454,6.282e-05,5.89e-05,5.966e-05,6.126e-05,6.086e-05,5.852e-05,5.73e-05,6.006e-05,5.716e-05,5.834e-05,5.55e-05,5.776e-05,5.554e-05,5.658e-05,5.736e-05,5.48e-05,5.362e-05,5.204e-05,5.39e-05,5.474e-05,4.33e-05,4.444e-05,4.448e-05,4.458e-05,4.324e-05,4.312e-05,4.28e-05,4.322e-05,4.25e-05,4.368e-05,0.00010022,9.544e-05,8.954e-05,9.222e-05,9.35e-05,9.454e-05,9.44e-05,9.642e-05,9.326e-05,9.626e-05
456,6.296e-05,6.072e-05,6.18e-05,6.228e-05,6.114e-05,6.136e-05,5.904e-05,5.812e-05,5.968e-05,5.958e-05,5.972e-05,6.046e-05,5.698e-05,5.854e-05,5.91e-05,5.766e-05,5.662e-05,5.554e-05,5.672e-05,5.784e-05,4.644e-05,4.758e-05,4.696e-05,4.772e-05,4.624e-05,4.556e-05,4.522e-05,4.542e-05,4.512e-05,4.584e-05,0.0001014,9.78e-05,9.496e-05,9.28e-05,9.38e-05,9.46e-05,9.326e-05,9.524e-05,9.504e-05,9.542e-05
458,6.622e-05,6.27e-05,6.474e-05,6.448e-05,6.34e-05,6.474e-05,6.032e-05,6.24e-05,6.36e-05,6.346e-05,6.454e-05,6.568e-05,6.228e-05,6.358e-05,6.432e-05,6.224e-05,6.018e-05,6.01e-05,6.194e-05,6.21e-05,4.984e-05,5.104e-05,5.028e-05,5.098e-05,5.014e-05,4.868e-05,4.902e-05,4.962e-05,4.858e-05,4.998e-05,0.00010464,9.986e-05,9.522e-05,9.634e-05,9.68e-05,9.804e-05,9.81e-05,9.796e-05,9.454e-05,9.712e-05
460,6.878e-05,6.602e-05,6.77e-05,6.818e-05,6.706e-05,6.854e-05,6.338e-05,6.656e-05,6.65e-05,6.674e-05,6.754e-05,6.962e-05,6.694e-05,6.824e-05,6.858e-05,6.638e-05,6.52e-05,6.43e-05,6.628e-05,6.632e-05,5.328e-05,5.428e-05,5.428e-05,5.412e-05,5.4e-05,5.29e-05,5.278e-05,5.282e-05,5.212e-05,5.358e-05,0.00010492,0.0001023,0.00010098,9.912e-05,9.886e-05,0.00010086,0.00010036,9.978e-05,9.836e-05,9.916e-05
462,7.138e-05,7e-05,7.214e-05,7.14e-05,7.012e-05,7.122e-05,6.6e-05,7.098e-05,7.012e-05,6.796e-05,7.208e-05,7.38e-05,7.076e-05,7.234e-05,7.266e-05,7.086e-05,7.006e-05,6.804e-05,7.1e-05,7.13e-05,5.656e-05,5.786e-05,5.79e-05,5.81e-05,5.73e-05,5.7e-05,5.684e-05,5.704e-05,5.606e-05,5.748e-05,0.00010862,0.00010392,0.00010388,0.00010208,9.93e-05,0.00010234,0.00010266,9.958e-05,0.00010086,0.00010042
464,7.526e-05,7.264e-05,7.61e-05,7.672e-05,7.556e-05,7.74e-05,6.932e-05,7.28e-05,7.616e-05,7.194e-05,7.766e-05,7.828e-05,7.654e-05,7.79e-05,7.744e-05,7.572e-05,7.548e-05,7.312e-05,7.646e-05,7.6e-05,6.078e-05,6.27e-05,6.212e-05,6.204e-05,6.132e-05,6.13e-05,6.082e-05,6.166e-05,6.072e-05,6.146e-05,0.00011152,0.00010558,0.00010514,0.00010438,0.00010126,0.00010418,0.00010494,0.0001037,0.00010166,0.00010518
466,7.82e-05,7.548e-05,7.916e-05,7.872e-05,7.802e-05,8.164e-05,7.408e-05,7.724e-05,8.068e-05,7.776e-05,8.288e-05,8.45e-05,8.32e-05,8.398e-05,8.4e-05,8.154e-05,8.27e-05,8.024e-05,8.096e-05,8.286e-05,6.596e-05,6.7e-05,6.648e-05,6.604e-05,6.598e-05,6.608e-05,6.518e-05,6.668e-05,6.51e-05,6.694e-05,0.00011504,0.00011002,0.0001094,0.0001083,0.0001058,0.0001096,0.00010766,0.00010948,0.00010714,0.00010792
468,8.398e-05,8.002e-05,8.578e-05,8.27e-05,8.306e-05,8.66e-05,7.834e-05,8.142e-05,8.452e-05,8.24e-05,9.136e-05,9.314e-05,8.984e-05,9.06e-05,9.012e-05,8.856e-05,8.844e-05,8.542e-05,8.718e-05,9.02e-05,7.146e-05,7.31e-05,7.204e-05,7.222e-05,7.278e-05,7.202e-05,7.12e-05,7.258e-05,7.072e-05,7.27e-05,0.00011956,0.00011862,0.00011438,0.00011152,0.00011076,0.00011592,0.00011284,0.0001131,0.00011242,0.00011232
470,8.5e-05,8.238e-05,8.824e-05,8.698e-05,8.588e-05,8.722e-05,7.938e-05,8.154e-05,8.684e-05,8.394e-05,9.564e-05,9.702e-05,9.446e-05,9.716e-05,9.492e-05,9.206e-05,9.412e-05,9.158e-05,9.394e-05,9.444e-05,7.56e-05,7.68e-05,7.64e-05,7.626e-05,7.654e-05,7.57e-05,7.466e-05,7.616e-05,7.458e-05,7.632e-05,0.00012008,0.00011764,0.00010972,0.00011308,0.00011336,0.0001166,0.00011554,0.00011392,0.00011218,0.000111
472,8.608e-05,8.234e-05,8.658e-05,8.672e-05,8.622e-05,8.72e-05,8.042e-05,8.252e-05,8.708e-05,8.438e-05,9.804e-05,9.906e-05,9.818e-05,9.922e-05,9.646e-05,9.53e-05,9.67e-05,9.456e-05,9.604e-05,9.728e-05,7.79e-05,7.904e-05,7.828e-05,7.818e-05,7.922e-05,7.81e-05,7.758e-05,7.814e-05,7.688e-05,7.816e-05,0.0001201,0.00011634,0.0001101,0.0001114,0.00011178,0.00011576,0.00011262,0.0001124,0.00011318,0.00011234
474,8.452e-05,8.276e-05,8.796e-05,8.484e-05,8.634e-05,8.886e-05,7.952e-05,8.332e-05,8.676e-05,8.208e-05,9.848e-05,0.00010012,9.946e-05,0.00010064,9.794e-05,9.714e-05,9.686e-05,9.604e-05,9.758e-05,9.814e-05,7.922e-05,8.058e-05,7.944e-05,7.964e-05,8.062e-05,7.986e-05,7.892e-05,7.972e-05,7.864e-05,7.95e-05,0.0001181,0.00011418,0.0001119,0.00011,0.00011102,0.00011444,0.00011178,0.00011146,0.00010852,0.00010978
476,8.006e-05,7.982e-05,8.636e-05,8.372e-05,8.35e-05,8.59e-05,7.816e-05,8.018e-05,8.232e-05,8.026e-05,9.734e-05,9.924e-05,9.926e-05,9.922e-05,9.698e-05,9.626e-05,9.68e-05,9.642e-05,9.638e-05,9.818e-05,7.872e-05,7.974e-05,7.822e-05,7.864e-05,7.984e-05,7.894e-05,7.862e-05,7.898e-05,7.816e-05,7.93e-05,0.0001117,0.0001107,0.00010984,0.00010824,0.00010828,0.00011,0.00010736,0.00010542,0.00010394,0.00010456
478,7.998e-05,7.82e-05,8.422e-05,8.262e-05,8.052e-05,8.494e-05,7.652e-05,7.828e-05,8.34e-05,7.914e-05,9.886e-05,0.0001005,9.954e-05,9.964e-05,9.812e-05,9.612e-05,9.842e-05,9.722e-05,9.798e-05,9.864e-05,7.936e-05,7.944e-05,7.878e-05,7.858e-05,8.106e-05,7.924e-05,7.914e-05,7.944e-05,7.846e-05,7.97e-05,0.00010768,0.00010702,0.00010684,0.00010424,0.00010404,0.000107,0.00010378,0.00010268,0.00010314,0.00010278
480,8.124e-05,7.968e-05,8.422e-05,8.342e-05,8.4e-05,8.746e-05,7.868e-05,7.868e-05,8.578e-05,8.096e-05,0.00010476,0.00010608,0.00010442,0.0001055,0.00010384,0.00010274,0.00010382,0.0001031,0.0001042,0.00010442,8.41e-05,8.386e-05,8.312e-05,8.316e-05,8.478e-05,8.382e-05,8.346e-05,8.326e-05,8.23e-05,8.36e-05,0.0001107,0.00010784,0.00011014,0.00010372,0.0001055,0.00010822,0.0001031,0.00010494,0.0001027,0.00010302
482,8.666e-05,8.42e-05,8.852e-05,8.976e-05,8.724e-05,9.076e-05,8.494e-05,8.446e-05,8.668e-05,8.544e-05,0.00011278,0.00011414,0.00011208,0.00011376,0.00011094,0.00010942,0.00011184,0.00011124,0.00011148,0.00011286,9.076e-05,9.05e-05,8.976e-05,8.984e-05,9.174e-05,9.048e-05,9.052e-05,9.018e-05,8.94e-05,8.998e-05,0.00011342,0.0001119,0.00010906,0.00011032,0.00010818,0.00011092,0.00010832,0.00011022,0.00010502,0.00010704
484,8.7e-05,8.524e-05,9.072e-05,8.91e-05,8.92e-05,9.098e-05,8.682e-05,8.64e-05,9.116e-05,8.728e-05,0.00011866,0.0001194,0.00011842,0.0001188,0.00011802,0.00011588,0.0001175,0.00011762,0.00011706,0.00011798,9.584e-05,9.592e-05,9.534e-05,9.492e-05,9.688e-05,9.478e-05,9.45e-05,9.482e-05,9.448e-05,9.45e-05,0.00011136,0.0001117,0.00011256,0.00011062,0.00011158,0.0001128,0.00010888,0.00011056,0.00010796,0.00010852
486,8.57e-05,8.474e-05,8.988e-05,8.702e-05,8.824e-05,9.14e-05,8.724e-05,8.654e-05,8.966e-05,8.554e-05,0.00012632,0.0001275,0.00012662,0.0001269,0.0001253,0.0001229,0.0001253,0.00012374,0.00012358,0.00012492,0.00010246,0.00010254,0.00010244,0.00010142,0.000104,0.00010082,0.0001004,0.0001002,0.00010056,0.00010018,0.0001094,0.00010954,0.00011048,0.00011106,0.00011004,0.00011048,0.00010896,0.00010964,0.00010714,0.0001089
488,8.66e-05,8.594e-05,9.032e-05,8.82e-05,8.964e-05,9.04e-05,8.72e-05,8.702e-05,9.026e-05,8.808e-05,0.00015588,0.00015678,0.0001566,0.00015542,0.00015456,0.00014706,0.00014884,0.000149,0.00014872,0.00014968,0.00012888,0.00012844,0.0001278,0.00012738,0.00012946,0.00012204,0.00012118,0.0001218,0.00012222,0.00012168,0.00011076,0.00011116,0.0001124,0.00011412,0.00011346,0.00011334,0.00011018,0.00011066,0.00010852,0.00011034
490,8.946e-05,8.962e-05,9.37e-05,9.154e-05,9.422e-05,9.298e-05,9.226e-05,8.874e-05,9.318e-05,9.148e-05,0.0002478,0.0002466,0.000247,0.0002464,0.0002444,0.0002258,0.000227,0.0002272,0.0002278,0.0002288,0.0002104,0.000209,0.000209,0.0002078,0.0002102,0.00019206,0.00019078,0.00019194,0.00019192,0.00019106,0.00012366,0.00012196,0.0001218,0.0001249,0.00012364,0.00012108,0.00011966,0.00012042,0.00011834,0.00011888
492,9.364e-05,9.502e-05,9.886e-05,9.67e-05,9.802e-05,9.714e-05,9.746e-05,9.55e-05,9.766e-05,9.666e-05,0.0004424,0.0004422,0.000441,0.0004416,0.0004392,0.0004014,0.0004032,0.0004048,0.0004048,0.000404,0.0003788,0.0003768,0.0003774,0.000376,0.0003774,0.000344,0.0003426,0.0003434,0.0003436,0.0003432,0.00014178,0.00013986,0.000142,0.00014406,0.00014332,0.00013562,0.00013866,0.00013702,0.00013892,0.00013788
494,9.99e-05,9.978e-05,0.00010434,0.00010236,0.0001025,0.0001005,0.00010312,9.946e-05,0.00010164,0.00010258,0.0007924,0.0007902,0.0007912,0.0007894,0.0007852,0.0007234,0.0007238,0.0007276,0.000727,0.000727,0.0006368,0.0006348,0.0006364,0.0006342,0.0006356,0.0005878,0.0005862,0.000588,0.0005882,0.0005882,0.00016844,0.00017008,0.00017016,0.0001698,0.00016948,0.00016238,0.00016306,0.00016214,0.00016236,0.00016166
496,0.0001035,0.0001049,0.00010862,0.00010722,0.00010766,0.00010618,0.00010638,0.00010388,0.0001059,0.00010354,0.0012572,0.0012548,0.001256,0.0012542,0.001251,0.0011594,0.001161,0.0011648,0.0011652,0.001164,0.0008796,0.0008782,0.0008784,0.000877,0.0008782,0.0008276,0.000828,0.000829,0.0008298,0.0008294,0.00019476,0.00019582,0.00019588,0.000201,0.00019978,0.00018884,0.00019144,0.00018902,0.00018812,0.0001882
498,0.00011352,0.0001159,0.0001157,0.00011526,0.00011462,0.00011202,0.00011378,0.00011058,0.000113,0.00011068,0.001859,0.001853,0.001855,0.0018532,0.00185,0.001733,0.001735,0.00174,0.0017408,0.0017396,0.0010782,0.0010768,0.0010764,0.0010754,0.001077,0.0010326,0.001033,0.0010338,0.0010352,0.0010344,0.0002262,0.0002296,0.000228,0.000231,0.0002314,0.0002198,0.0002228,0.0002208,0.0002196,0.0002208
500,0.00012856,0.00012996,0.00013066,0.00012974,0.00012946,0.000125,0.00012864,0.00012492,0.00012736,0.00012486,0.002544,0.002536,0.00254,0.002538,0.002534,0.00241,0.002412,0.002416,0.002418,0.002414,0.001231,0.0012294,0.0012292,0.001229,0.0012302,0.0011962,0.0011968,0.0011982,0.0011986,0.001198,0.0002588,0.000262,0.0002636,0.0002626,0.0002644,0.0002544,0.0002564,0.0002558,0.000254,0.0002518
502,0.00014494,0.00014608,0.00014768,0.00014728,0.00014684,0.00014066,0.0001447,0.00014094,0.00014398,0.0001413,0.003184,0.003178,0.00318,0.003178,0.003176,0.003066,0.003068,0.003072,0.003074,0.003068,0.0013378,0.0013368,0.0013364,0.0013362,0.0013368,0.0013152,0.0013146,0.0013158,0.0013166,0.0013154,0.000288,0.0002884,0.0002936,0.0002924,0.0002952,0.0002848,0.00029,0.0002872,0.0002866,0.0002842
504,0.00015718,0.00015892,0.0001584,0.00015774,0.00015842,0.00015218,0.00015562,0.00015432,0.00015604,0.00015516,0.00366,0.003654,0.003658,0.003654,0.003654,0.003576,0.003578,0.00358,0.003582,0.003576,0.0013942,0.0013942,0.001394,0.001394,0.0013942,0.0013822,0.0013812,0.0013818,0.0013834,0.001381,0.0003068,0.0003076,0.0003112,0.0003108,0.0003136,0.0003064,0.0003118,0.000309,0.0003072,0.0003042
506,0.00016408,0.00016402,0.00016368,0.00016464,0.00016182,0.00015714,0.00016418,0.00016096,0.00016234,0.00016134,0.003892,0.003888,0.003892,0.003888,0.003888,0.00385,0.003854,0.003852,0.003854,0.00385,0.0013624,0.001363,0.001364,0.0013636,0.0013648,0.001367,0.0013658,0.0013664,0.0013672,0.0013642,0.0003108,0.0003102,0.000314,0.0003122,0.0003126,0.0003128,0.0003158,0.0003122,0.0003136,0.0003088
508,0.00016692,0.00016632,0.00016752,0.00016652,0.00016592,0.00016098,0.00016764,0.00016498,0.00016468,0.00016382,0.00384,0.00384,0.003842,0.003838,0.00384,0.003836,0.003838,0.003836,0.003836,0.003834,0.0011864,0.001189,0.0011886,0.001189,0.0011906,0.0012138,0.0012134,0.0012132,0.0012144,0.0012116,0.0002948,0.000291,0.0003022,0.0002974,0.0002974,0.0002992,0.0003028,0.0003008,0.0003,0.0002962
510,0.00016712,0.0001683,0.0001664,0.00016806,0.00016652,0.00016176,0.00016792,0.0001662,0.00016626,0.00016648,0.00357,0.00357,0.003572,0.003568,0.003572,0.003592,0.003596,0.003594,0.0036,0.003596,0.0009034,0.0009066,0.0009064,0.0009074,0.000908,0.0009472,0.0009474,0.000947,0.0009484,0.0009456,0.0002716,0.0002712,0.0002768,0.000274,0.0002756,0.000277,0.0002806,0.0002772,0.000278,0.0002742
512,0.00016356,0.0001653,0.00016202,0.0001626,0.00016164,0.00015938,0.0001652,0.0001635,0.00016424,0.0001642,0.003086,0.003088,0.003088,0.003084,0.00309,0.003144,0.003148,0.003148,0.003152,0.00315,0.0006076,0.0006102,0.0006106,0.000611,0.0006116,0.0006514,0.0006522,0.000651,0.0006526,0.0006504,0.0002446,0.0002448,0.000249,0.0002494,0.0002496,0.0002506,0.000254,0.0002532,0.0002528,0.0002498
514,0.00015224,0.00015466,0.00015064,0.0001522,0.00015256,0.00015008,0.00015538,0.0001544,0.0001544,0.00015406,0.002362,0.002366,0.002364,0.002362,0.00237,0.002462,0.002468,0.002466,0.002472,0.002468,0.000391,0.0003926,0.0003934,0.000393,0.0003932,0.0004216,0.0004228,0.0004214,0.000423,0.000421,0.0002174,0.0002144,0.0002198,0.00022,0.0002198,0.0002214,0.0002274,0.0002256,0.000223,0.0002212
516,0.00013832,0.00014208,0.00013776,0.0001392,0.00013932,0.00013662,0.00014064,0.00013968,0.00013944,0.00013944,0.001501,0.0015056,0.0015028,0.0015022,0.0015092,0.0016204,0.0016254,0.001622,0.0016246,0.0016226,0.00026,0.000261,0.0002616,0.0002616,0.0002614,0.0002788,0.0002796,0.0002794,0.0002802,0.000278,0.00018942,0.00018374,0.00018966,0.00019012,0.00019036,0.0001937,0.00019644,0.00019612,0.00019446,0.00019154
518,0.00012666,0.00012978,0.00012474,0.00012822,0.00012728,0.00012336,0.0001282,0.0001278,0.00012746,0.0001292,0.0007364,0.0007388,0.0007374,0.0007376,0.0007422,0.000821,0.000824,0.0008208,0.0008218,0.000821,0.0001835,0.00018418,0.00018406,0.00018484,0.00018414,0.00019332,0.00019356,0.00019288,0.00019382,0.00019236,0.00017032,0.00016646,0.00017156,0.0001727,0.00017268,0.00017058,0.0001742,0.00017266,0.00017296,0.0001685
520,0.00012354,0.00012706,0.00012288,0.00012442,0.00012508,0.00011966,0.00012356,0.00012424,0.0001251,0.0001242,0.000365,0.000364,0.0003646,0.0003638,0.0003674,0.000398,0.0003984,0.0003992,0.0003986,0.0003978,0.00015334,0.00015352,0.00015394,0.00015408,0.0001531,0.00015746,0.00015738,0.00015672,0.00015772,0.0001564,0.00016326,0.0001615,0.00016506,0.0001651,0.00016646,0.00016326,0.00016614,0.00016524,0.00016664,0.0001622
522,0.00012438,0.00012802,0.000124,0.00012564,0.0001262,0.00012236,0.00012368,0.00012478,0.00012468,0.00012412,0.0002568,0.0002546,0.0002554,0.000255,0.0002568,0.0002654,0.000265,0.0002658,0.0002656,0.0002644,0.00014436,0.00014458,0.00014462,0.0001449,0.00014402,0.00014578,0.00014602,0.00014574,0.0001463,0.00014538,0.0001638,0.00016216,0.00016392,0.0001662,0.0001663,0.00016312,0.00016766,0.00016552,0.00016702,0.00016188
524,0.0001274,0.00013116,0.00012604,0.00012728,0.00012846,0.00012418,0.0001264,0.00012832,0.00012688,0.00012798,0.0002308,0.0002288,0.0002298,0.0002288,0.000231,0.0002314,0.0002324,0.0002332,0.0002322,0.0002316,0.00014148,0.000142,0.00014236,0.00014258,0.00014144,0.00014212,0.00014266,0.00014242,0.00014282,0.00014184,0.0001674,0.00016486,0.0001696,0.00016914,0.00016892,0.00016748,0.0001686,0.00016844,0.000169,0.00016592
526,0.00013096,0.00013424,0.000129,0.00013116,0.00013174,0.00012688,0.0001307,0.00013244,0.00013092,0.00013114,0.0002224,0.0002208,0.0002222,0.000221,0.000223,0.000222,0.0002224,0.0002236,0.000223,0.000223,0.00014014,0.00014058,0.00014106,0.00014104,0.00013982,0.00014094,0.00014106,0.00014094,0.0001413,0.00014118,0.00017226,0.00016998,0.00017444,0.0001723,0.00017314,0.00017024,0.00017276,0.00017192,0.00017192,0.00017126
528,0.00013474,0.00013756,0.00013322,0.00013608,0.00013538,0.0001304,0.0001328,0.00013578,0.00013376,0.00013424,0.0002166,0.0002144,0.0002166,0.0002148,0.0002162,0.0002162,0.0002162,0.0002172,0.0002178,0.0002176,0.0001383,0.00013932,0.0001398,0.00013956,0.00013864,0.00013984,0.00013984,0.00013922,0.00014052,0.00013978,0.00017626,0.00017298,0.00017628,0.00017562,0.00017784,0.00017344,0.00017632,0.0001739,0.00017588,0.00017538
530,0.00013724,0.00014112,0.00013524,0.00013832,0.00013906,0.00013454,0.00013638,0.00013944,0.00013634,0.00013838,0.0002108,0.0002072,0.0002076,0.0002078,0.0002098,0.0002092,0.0002098,0.000209,0.0002104,0.0002106,0.00013784,0.00013884,0.00013862,0.00013868,0.00013784,0.00013864,0.00013894,0.00013766,0.00013838,0.0001381,0.00018232,0.00017812,0.00018198,0.0001806,0.00018192,0.00017764,0.00017898,0.0001791,0.00018072,0.00017848
532,0.00014128,0.00014404,0.00013804,0.00014106,0.00014292,0.0001388,0.00013874,0.00014338,0.0001392,0.00014096,0.0002038,0.0002008,0.000201,0.000202,0.0002028,0.0002034,0.0002034,0.0002026,0.0002028,0.000203,0.00013804,0.00013798,0.00013804,0.00013852,0.0001373,0.00013808,0.0001387,0.00013832,0.0001386,0.00013852,0.00018548,0.0001853,0.00018678,0.00018376,0.00018744,0.00018372,0.00018392,0.00018426,0.0001852,0.00018412
534,0.0001449,0.00014712,0.00014192,0.00014502,0.00014524,0.00014314,0.00014322,0.00014532,0.00014326,0.0001436,0.00019862,0.00019648,0.0001974,0.00019684,0.00019836,0.00019848,0.0001981,0.00019784,0.00019854,0.00019728,0.00013772,0.00013796,0.0001382,0.00013866,0.0001369,0.0001387,0.00013876,0.00013758,0.00013856,0.00013848,0.00019052,0.00018882,0.00018916,0.00018926,0.0001905,0.00018796,0.0001878,0.0001888,0.00018918,0.00018816
536,0.00014714,0.0001521,0.00014704,0.0001483,0.00014962,0.00014764,0.00014668,0.00014912,0.0001478,0.00014762,0.00019606,0.00019472,0.0001946,0.00019456,0.0001954,0.0001951,0.0001951,0.000195,0.00019534,0.00019414,0.00013888,0.00013892,0.00013898,0.00013928,0.00013804,0.00013926,0.00013912,0.00013788,0.00013814,0.00013878,0.00019548,0.0001934,0.00019318,0.0001936,0.00019414,0.0001913,0.00019152,0.00019262,0.00019406,0.00019182
538,0.00015158,0.00015398,0.00015078,0.00015166,0.000154,0.00015232,0.00014964,0.00015262,0.00015058,0.00015156,0.00019532,0.00019362,0.00019428,0.00019384,0.00019396,0.00019366,0.00019366,0.00019364,0.00019398,0.00019298,0.00013982,0.00014002,0.00014002,0.00014022,0.0001396,0.00013996,0.00013976,0.0001393,0.00013934,0.00014066,0.0002006,0.00019906,0.00019712,0.00019916,0.00019856,0.00019622,0.00019632,0.00019644,0.0001971,0.00019566
540,0.00015588,0.00015816,0.00015508,0.00015686,0.00015762,0.00015482,0.00015466,0.0001565,0.00015478,0.0001555,0.00019408,0.00019412,0.0001942,0.00019424,0.00019422,0.00019396,0.00019344,0.00019224,0.00019466,0.00019372,0.00014124,0.00014144,0.00014092,0.00014134,0.00014078,0.0001408,0.0001407,0.00014028,0.00014074,0.00014136,0.000205,0.000202,0.0002012,0.000203,0.0002026,0.0001999,0.00019994,0.0002002,0.000201,0.0002008
542,0.0001616,0.00016276,0.0001608,0.000162,0.00016218,0.00016158,0.00016012,0.000161,0.00016074,0.00016004,0.00019632,0.00019646,0.000196,0.00019552,0.00019692,0.00019484,0.00019422,0.0001945,0.0001956,0.00019476,0.00014314,0.00014324,0.00014258,0.0001433,0.00014274,0.00014268,0.00014234,0.00014184,0.00014244,0.00014306,0.0002096,0.0002088,0.0002088,0.0002086,0.0002084,0.0002054,0.0002038,0.0002066,0.0002054,0.0002062
544,0.00016638,0.00016612,0.00016476,0.00016596,0.000166,0.00016612,0.00016426,0.00016636,0.00016576,0.00016478,0.00019772,0.00019674,0.00019764,0.00019718,0.00019774,0.00019586,0.0001959,0.00019554,0.00019662,0.00019626,0.0001451,0.0001448,0.00014482,0.00014528,0.00014474,0.00014468,0.00014392,0.00014402,0.00014418,0.0001451,0.0002126,0.0002128,0.0002104,0.0002124,0.0002112,0.0002094,0.000209,0.0002108,0.0002104,0.0002096
546,0.00016954,0.00016994,0.00016812,0.0001685,0.0001707,0.00016964,0.0001684,0.00016956,0.0001688,0.00016898,0.0001977,0.00019672,0.00019784,0.00019676,0.00019684,0.00019578,0.00019618,0.00019538,0.00019714,0.00019646,0.00014606,0.00014616,0.00014576,0.0001465,0.00014584,0.00014566,0.00014604,0.0001455,0.0001453,0.00014652,0.000215,0.0002152,0.000211,0.0002118,0.0002124,0.0002102,0.0002122,0.0002122,0.0002132,0.0002122
548,0.00017326,0.00017406,0.00017314,0.00017234,0.00017526,0.00017408,0.0001727,0.0001736,0.00017238,0.0001722,0.0001993,0.00019736,0.00019786,0.00019796,0.00019776,0.00019612,0.00019652,0.00019564,0.00019742,0.00019714,0.00014758,0.00014766,0.00014716,0.00014766,0.00014732,0.00014716,0.00014726,0.0001466,0.00014682,0.0001474,0.0002162,0.0002166,0.0002118,0.0002134,0.0002146,0.0002108,0.0002134,0.0002148,0.0002146,0.000214
550,0.0001785,0.0001772,0.00017706,0.00017638,0.00017756,0.00017762,0.00017716,0.00017628,0.00017592,0.00017608,0.00019894,0.00019852,0.000198,0.00019812,0.00019786,0.00019692,0.0001959,0.00019642,0.000197,0.00019758,0.000149,0.00014858,0.00014818,0.00014868,0.00014876,0.00014828,0.00014804,0.00014832,0.00014848,0.00014884,0.0002174,0.0002182,0.0002138,0.0002156,0.0002144,0.0002128,0.000214,0.0002164,0.0002154,0.0002142
552,0.00018116,0.00017998,0.00017958,0.00017892,0.00018048,0.00018212,0.00018048,0.00017968,0.0001802,0.00018042,0.00019916,0.0001982,0.00019842,0.00019868,0.0001986,0.00019668,0.00019654,0.00019654,0.00019864,0.00019878,0.00014992,0.0001496,0.00014912,0.00014976,0.0001497,0.00014936,0.00014932,0.00014904,0.00014908,0.00015014,0.0002184,0.0002174,0.0002162,0.000215,0.0002152,0.0002148,0.0002156,0.0002166,0.0002164,0.0002152
554,0.00018322,0.00018154,0.00018326,0.00018268,0.00018412,0.00018458,0.0001824,0.00018216,0.00018272,0.00018002,0.0002004,0.00019952,0.00019998,0.0001994,0.00019924,0.00019782,0.00019724,0.00019612,0.00019854,0.0001976,0.0001511,0.00015096,0.00015086,0.00015084,0.00015108,0.00015058,0.00015008,0.00015004,0.0001496,0.00015092,0.0002226,0.0002218,0.0002176,0.00022,0.0002188,0.000218,0.0002184,0.0002188,0.0002166,0.0002178
556,0.00018588,0.00018468,0.0001843,0.00018444,0.00018546,0.00018544,0.00018392,0.0001827,0.00018406,0.0001831,0.0002006,0.0001998,0.0002,0.00019976,0.00019918,0.00019762,0.00019624,0.00019642,0.00019794,0.00019826,0.00015168,0.00015128,0.00015162,0.0001511,0.00015178,0.00015086,0.00015032,0.00015068,0.00015036,0.00015106,0.0002382,0.0002388,0.0002346,0.0002372,0.0002356,0.0002308,0.0002308,0.000233,0.0002308,0.0002306
558,0.0001873,0.00018622,0.0001868,0.00018642,0.00018784,0.00018744,0.00018616,0.00018494,0.00018554,0.00018534,0.0002006,0.0002002,0.0002006,0.0002006,0.00019968,0.00019754,0.00019684,0.00019638,0.00019808,0.00019862,0.00015246,0.00015218,0.00015222,0.00015222,0.00015278,0.00015138,0.00015096,0.00015106,0.00015098,0.00015152,0.0003126,0.0003134,0.0003106,0.000311,0.000309,0.00029,0.0002904,0.0002932,0.0002904,0.0002904
560,0.0001889,0.00018808,0.00018936,0.00018972,0.00018938,0.0001894,0.0001884,0.0001863,0.00018892,0.00018724,0.0002014,0.000201,0.0002012,0.0002008,0.0002008,0.00019822,0.00019712,0.00019722,0.00019858,0.00019946,0.00015324,0.00015294,0.00015284,0.0001529,0.00015362,0.00015182,0.00015158,0.00015154,0.00015156,0.00015246,0.0005582,0.0005614,0.0005574,0.0005562,0.0005532,0.0004966,0.0004978,0.0005006,0.0004984,0.0005004
562,0.0001925,0.00019224,0.00019312,0.00019286,0.00019442,0.00019214,0.00019246,0.00019012,0.0001931,0.00019002,0.0002022,0.0002022,0.0002016,0.0002014,0.0002006,0.00019724,0.00019748,0.00019716,0.00019798,0.00019984,0.0001538,0.00015338,0.00015318,0.00015304,0.00015428,0.00015224,0.00015174,0.00015176,0.00015196,0.00015254,0.0011194,0.0011248,0.001121,0.001118,0.0011112,0.0009936,0.0009954,0.0010008,0.0010004,0.0010028
564,0.000207,0.000206,0.0002078,0.0002072,0.0002076,0.000204,0.0002044,0.0002032,0.0002034,0.0002026,0.000202,0.0002016,0.0002012,0.0002014,0.0002004,0.00019768,0.00019738,0.00019648,0.000198,0.0001984,0.00015434,0.0001542,0.00015416,0.00015306,0.00015474,0.00015238,0.0001515,0.00015238,0.00015246,0.00015228,0.00214,0.00216,0.002158,0.002146,0.002128,0.001948,0.001955,0.001959,0.0019604,0.0019614
566,0.000246,0.0002438,0.0002462,0.0002452,0.0002458,0.0002384,0.0002384,0.0002354,0.0002368,0.0002348,0.0002032,0.0002016,0.0002016,0.0002022,0.0002004,0.0001978,0.00019834,0.00019806,0.00019894,0.00019968,0.00015488,0.00015498,0.0001547,0.00015464,0.00015554,0.00015324,0.00015242,0.00015326,0.0001521,0.00015338,0.003338,0.003386,0.003384,0.00336,0.00332,0.003098,0.00311,0.003112,0.003114,0.003114
568,0.0003346,0.0003318,0.000333,0.0003326,0.0003338,0.0003134,0.000315,0.0003114,0.0003138,0.000312,0.0002028,0.0002032,0.0002034,0.0002026,0.0002022,0.00019916,0.00019942,0.00019992,0.0001992,0.0002006,0.00015518,0.00015532,0.00015516,0.00015496,0.00015646,0.000154,0.00015336,0.00015358,0.00015272,0.00015424,0.0046,0.004702,0.004702,0.004656,0.00458,0.004338,0.004348,0.004346,0.004352,0.00435
570,0.0005248,0.0005204,0.0005238,0.0005228,0.000522,0.000481,0.0004814,0.0004784,0.000481,0.00048,0.000205,0.0002054,0.0002044,0.0002048,0.000204,0.0002004,0.0002008,0.0002014,0.0002002,0.0002016,0.00015592,0.00015576,0.00015582,0.00015538,0.00015702,0.00015412,0.00015378,0.00015394,0.00015308,0.0001545,0.005882,0.006058,0.00606,0.005984,0.005858,0.005606,0.005618,0.00561,0.005618,0.005616
572,0.000918,0.0009104,0.000917,0.0009142,0.0009118,0.0008322,0.0008302,0.0008272,0.0008314,0.0008304,0.0002094,0.0002094,0.0002094,0.0002098,0.0002088,0.0002042,0.0002052,0.0002048,0.0002046,0.0002054,0.00015708,0.0001571,0.00015706,0.00015676,0.00015812,0.00015482,0.0001546,0.00015476,0.00015412,0.00015514,0.007134,0.007402,0.007404,0.007296,0.007108,0.006856,0.006866,0.006856,0.006866,0.006864
574,0.0016572,0.0016458,0.0016526,0.0016498,0.0016484,0.0015114,0.0015088,0.001507,0.001513,0.0015124,0.0002162,0.0002176,0.0002174,0.0002176,0.0002164,0.0002124,0.0002118,0.0002126,0.000211,0.0002124,0.00015838,0.00015838,0.00015844,0.00015812,0.0001595,0.00015604,0.00015572,0.00015584,0.000155,0.00015626,0.008348,0.008722,0.008722,0.008586,0.008322,0.008082,0.00809,0.008082,0.008098,0.008094
576,0.00272,0.002706,0.002712,0.00271,0.00271,0.002526,0.002522,0.002522,0.00253,0.002532,0.000232,0.0002322,0.0002302,0.000233,0.0002314,0.000225,0.0002236,0.000225,0.0002244,0.0002262,0.00016154,0.00016158,0.00016192,0.00016178,0.00016256,0.0001589,0.00015822,0.00015862,0.00015794,0.00015934,0.009372,0.009814,0.009816,0.009668,0.009344,0.009144,0.009158,0.009146,0.009166,0.009166
578,0.003832,0.003814,0.003822,0.00382,0.00382,0.003608,0.003606,0.003608,0.003618,0.003622,0.0002508,0.0002526,0.0002504,0.0002526,0.0002516,0.0002438,0.000243,0.0002444,0.000244,0.000245,0.00016722,0.00016738,0.00016744,0.00016764,0.000168,0.00016406,0.00016354,0.0001639,0.00016276,0.00016454,0.01002,0.010416,0.010418,0.010304,0.009996,0.009836,0.009852,0.009842,0.009866,0.009866
580,0.004964,0.004948,0.004956,0.004952,0.004952,0.004728,0.00473,0.004734,0.004744,0.00475,0.0002838,0.0002846,0.0002846,0.0002866,0.0002852,0.0002746,0.0002728,0.0002734,0.0002738,0.000275,0.0001788,0.0001785,0.00017846,0.00017856,0.0001793,0.00017402,0.00017414,0.00017444,0.00017348,0.00017438,0.010406,0.01065,0.01065,0.010598,0.010386,0.010258,0.010274,0.010264,0.010292,0.01029
582,0.006036,0.006022,0.006028,0.006024,0.006026,0.005804,0.00581,0.005816,0.005826,0.005834,0.0003496,0.0003496,0.00035,0.0003504,0.0003494,0.0003326,0.0003306,0.000333,0.0003328,0.0003334,0.0002,0.0001998,0.0002002,0.00019966,0.0002006,0.0001936,0.00019404,0.00019386,0.00019282,0.00019402,0.010584,0.010652,0.010654,0.010652,0.01057,0.01046,0.010478,0.010468,0.010496,0.010492
584,0.006978,0.006966,0.006968,0.006968,0.006972,0.006774,0.006782,0.006788,0.006796,0.006804,0.000494,0.0004932,0.0004948,0.0004942,0.0004936,0.0004598,0.000459,0.0004622,0.0004598,0.0004628,0.0002404,0.0002394,0.00024,0.0002392,0.00024,0.0002296,0.0002296,0.0002304,0.0002294,0.0002298,0.01061,0.010544,0.01054,0.010568,0.010598,0.010502,0.010524,0.010508,0.010538,0.010528
586,0.007788,0.00778,0.00778,0.007782,0.007786,0.007632,0.007642,0.007644,0.007652,0.00766,0.000803,0.0008018,0.0008022,0.0008018,0.0008008,0.000746,0.0007458,0.0007478,0.0007478,0.0007492,0.0003196,0.000319,0.0003192,0.0003192,0.000319,0.0003024,0.0003024,0.0003024,0.0003024,0.000303,0.010486,0.010328,0.01033,0.010376,0.010478,0.010402,0.010418,0.0104,0.010428,0.010414
588,0.008238,0.00823,0.00823,0.00823,0.008236,0.008134,0.008142,0.008144,0.008146,0.008154,0.001154,0.0011514,0.0011538,0.001152,0.0011506,0.0010928,0.0010916,0.0010934,0.0010928,0.0010942,0.0004264,0.0004258,0.0004252,0.0004256,0.0004256,0.0004022,0.0004016,0.0004024,0.0004018,0.0004024,0.01031,0.010122,0.010126,0.01017,0.010304,0.010244,0.01026,0.010236,0.010262,0.010246
590,0.0083,0.00829,0.008292,0.00829,0.008296,0.008254,0.00826,0.00826,0.00826,0.008266,0.001458,0.0014556,0.0014572,0.0014556,0.0014548,0.001409,0.0014076,0.0014092,0.0014078,0.00141,0.0005636,0.0005626,0.0005624,0.0005624,0.000562,0.0005324,0.0005314,0.000533,0.0005324,0.0005324,0.01007,0.009872,0.009874,0.009924,0.010064,0.010018,0.01003,0.010002,0.010026,0.01001
592,0.00783,0.007822,0.007828,0.007822,0.007828,0.007856,0.007862,0.00786,0.007856,0.007866,0.0016448,0.0016416,0.0016432,0.0016422,0.0016424,0.001615,0.0016114,0.0016126,0.0016122,0.0016136,0.0007368,0.0007348,0.000735,0.000735,0.0007346,0.0006972,0.0006958,0.000698,0.0006974,0.0006982,0.009776,0.009588,0.009592,0.009638,0.009774,0.009738,0.009744,0.009716,0.00974,0.009722
594,0.006828,0.006822,0.00683,0.006822,0.006826,0.006926,0.00693,0.006928,0.006924,0.006932,0.0017198,0.0017198,0.00172,0.0017182,0.0017194,0.0017034,0.0016994,0.001702,0.0017018,0.0017034,0.0009448,0.0009422,0.0009432,0.0009428,0.0009418,0.0008976,0.0008962,0.0008982,0.0008986,0.0008988,0.009444,0.009276,0.009278,0.009322,0.009444,0.009412,0.009414,0.009388,0.009414,0.0094
596,0.005336,0.005332,0.005336,0.00533,0.005338,0.005478,0.005482,0.005484,0.005476,0.005488,0.001713,0.001713,0.0017144,0.0017132,0.0017136,0.0017048,0.001702,0.001704,0.0017046,0.001706,0.0012054,0.0012026,0.0012034,0.001203,0.0012016,0.0011508,0.00115,0.0011524,0.0011524,0.0011538,0.009022,0.008872,0.008874,0.008918,0.009022,0.008988,0.008996,0.008974,0.009,0.00899
598,0.003944,0.003946,0.003946,0.003944,0.00395,0.00409,0.004096,0.004098,0.004094,0.004102,0.0016368,0.0016384,0.0016392,0.0016382,0.0016392,0.0016394,0.0016374,0.001638,0.0016398,0.0016408,0.0014668,0.0014644,0.0014646,0.0014648,0.0014632,0.0014066,0.001407,0.00141,0.0014108,0.0014128,0.008614,0.008484,0.008488,0.008526,0.008614,0.008586,0.008596,0.008578,0.008602,0.008596
600,0.002784,0.002786,0.002784,0.002784,0.002786,0.002906,0.002912,0.002916,0.002912,0.00292,0.0014704,0.0014722,0.001472,0.001471,0.0014728,0.0014896,0.0014882,0.0014894,0.0014906,0.0014904,0.0017282,0.0017248,0.0017258,0.0017254,0.0017238,0.0016668,0.0016676,0.0016716,0.001673,0.0016754,0.00821,0.0081,0.008106,0.008136,0.00821,0.008194,0.008208,0.00819,0.008216,0.008206
602,0.001846,0.0018486,0.0018468,0.0018468,0.001847,0.0019498,0.0019542,0.0019582,0.001953,0.0019604,0.0012072,0.0012082,0.0012086,0.0012078,0.0012086,0.0012396,0.0012382,0.00124,0.0012402,0.0012398,0.0019804,0.001977,0.0019778,0.0019776,0.0019758,0.0019226,0.0019234,0.0019282,0.0019302,0.0019316,0.007812,0.007716,0.007718,0.00775,0.00781,0.00781,0.007824,0.007806,0.00783,0.007822
604,0.0011018,0.0011064,0.0011006,0.001102,0.0011034,0.0011858,0.0011878,0.001193,0.0011872,0.0011936,0.0009438,0.0009436,0.0009456,0.0009456,0.0009466,0.000968,0.0009668,0.0009686,0.0009694,0.0009684,0.002218,0.002216,0.002216,0.002216,0.002214,0.002168,0.00217,0.002174,0.002176,0.002176,0.007404,0.007324,0.00733,0.007354,0.007402,0.007422,0.007438,0.007418,0.007442,0.00743
606,0.000559,0.000562,0.0005612,0.0005598,0.0005594,0.000609,0.0006102,0.0006138,0.0006094,0.0006126,0.0009214,0.0009198,0.0009218,0.0009192,0.0009198,0.0008956,0.0008924,0.0008946,0.0008924,0.0008922,0.002428,0.002426,0.002426,0.002428,0.002426,0.002396,0.002396,0.0024,0.0024,0.0024,0.006904,0.006834,0.006842,0.00686,0.006904,0.006952,0.006964,0.006944,0.006962,0.00695
608,0.0003302,0.0003314,0.00033,0.0003278,0.0003298,0.000351,0.0003472,0.000354,0.000349,0.0003536,0.0013454,0.0013396,0.001343,0.0013402,0.0013384,0.001252,0.0012496,0.001251,0.0012516,0.001249,0.002536,0.002536,0.002536,0.002536,0.002534,0.00252,0.00252,0.002524,0.002524,0.002524,0.006298,0.006226,0.006232,0.006254,0.006302,0.006388,0.006394,0.00637,0.006388,0.006374
610,0.0002638,0.0002642,0.0002618,0.0002614,0.0002636,0.000271,0.0002668,0.000273,0.0002682,0.0002728,0.002096,0.002086,0.002092,0.002088,0.002086,0.0019562,0.0019522,0.0019548,0.0019544,0.0019528,0.00253,0.00253,0.00253,0.002532,0.002532,0.00253,0.00253,0.002532,0.002532,0.002532,0.005566,0.0055,0.005502,0.005524,0.005574,0.005686,0.00569,0.005666,0.005678,0.005664
612,0.0002428,0.0002428,0.000241,0.000241,0.0002414,0.0002462,0.0002428,0.0002474,0.000243,0.000248,0.003018,0.003004,0.003012,0.00301,0.003004,0.00285,0.002846,0.002848,0.002846,0.002846,0.0024,0.002402,0.002402,0.002402,0.002404,0.002418,0.002416,0.002416,0.002416,0.002416,0.004746,0.00469,0.004694,0.00471,0.004754,0.004878,0.004878,0.004856,0.00487,0.004858
614,0.0002342,0.0002356,0.000234,0.0002336,0.000235,0.0002376,0.0002328,0.0002372,0.0002338,0.0002394,0.003996,0.003982,0.00399,0.003988,0.003982,0.003814,0.003808,0.00381,0.00381,0.003808,0.002148,0.00215,0.00215,0.00215,0.002152,0.002184,0.002182,0.002182,0.002182,0.002182,0.003902,0.003862,0.003864,0.003874,0.003908,0.004032,0.00403,0.004012,0.004026,0.004018
616,0.0002336,0.0002368,0.0002334,0.0002328,0.0002346,0.0002332,0.0002302,0.0002376,0.0002308,0.0002352,0.005036,0.005018,0.005028,0.005026,0.005018,0.004846,0.00484,0.004844,0.004844,0.004844,0.001759,0.0017622,0.001762,0.0017634,0.0017658,0.0018128,0.0018118,0.0018118,0.001812,0.0018116,0.002998,0.002974,0.002978,0.002984,0.003006,0.003116,0.003118,0.003106,0.003112,0.00311
618,0.0002422,0.0002462,0.0002464,0.0002428,0.000246,0.0002406,0.000238,0.000245,0.0002384,0.0002446,0.005964,0.005944,0.005954,0.005954,0.005946,0.005776,0.005774,0.005776,0.005778,0.005778,0.0013258,0.0013292,0.0013288,0.0013304,0.0013328,0.0013908,0.00139,0.0013902,0.0013902,0.0013898,0.002176,0.002164,0.002166,0.002166,0.002182,0.002284,0.002284,0.002276,0.002284,0.00228
620,0.0002704,0.0002722,0.000273,0.0002692,0.0002724,0.0002628,0.0002618,0.0002694,0.000262,0.0002686,0.006738,0.006718,0.006728,0.006728,0.00672,0.00656,0.006562,0.006568,0.006572,0.006572,0.0009122,0.000916,0.0009154,0.000917,0.0009192,0.0009772,0.0009778,0.000977,0.0009778,0.0009774,0.0014738,0.0014704,0.0014714,0.0014718,0.0014824,0.001571,0.0015694,0.001564,0.0015716,0.0015676
622,0.000318,0.0003182,0.0003202,0.0003162,0.0003194,0.0003058,0.0003024,0.0003122,0.0003046,0.0003098,0.00736,0.00734,0.00735,0.007354,0.007344,0.007214,0.00722,0.007224,0.007228,0.00723,0.00058,0.000583,0.0005826,0.0005832,0.0005846,0.0006264,0.000627,0.000626,0.0006276,0.0006264,0.000926,0.0009242,0.0009296,0.0009244,0.0009326,0.000994,0.0009934,0.000989,0.0009928,0.0009926
624,0.0003878,0.000388,0.0003894,0.000384,0.0003882,0.0003706,0.0003666,0.0003762,0.000369,0.0003748,0.007774,0.007756,0.007768,0.00777,0.00776,0.007664,0.007672,0.007676,0.007682,0.00768,0.0004336,0.0004346,0.0004352,0.0004342,0.0004356,0.0004424,0.0004426,0.0004424,0.000444,0.0004424,0.0006458,0.0006466,0.0006514,0.0006454,0.0006494,0.0006676,0.000669,0.0006626,0.000666,0.000666
626,0.0004896,0.0004894,0.0004908,0.0004876,0.0004922,0.0004686,0.0004644,0.0004732,0.0004678,0.0004724,0.007968,0.007954,0.007964,0.007964,0.00796,0.007888,0.0079,0.0079,0.007906,0.007902,0.0005242,0.0005234,0.0005236,0.0005232,0.0005226,0.0004954,0.000495,0.0004956,0.0004972,0.0004952,0.0006806,0.0006814,0.000684,0.0006732,0.0006814,0.0006592,0.0006572,0.0006576,0.0006572,0.0006566
628,0.000619,0.0006166,0.0006186,0.0006158,0.0006198,0.000593,0.0005918,0.0005962,0.000591,0.0005962,0.007922,0.007914,0.007918,0.00792,0.007918,0.007864,0.007878,0.007876,0.007878,0.007872,0.0007712,0.0007702,0.0007696,0.000769,0.0007686,0.0007214,0.0007208,0.0007208,0.000722,0.0007212,0.0009184,0.0009214,0.0009256,0.0009132,0.000921,0.0008758,0.0008772,0.0008736,0.0008754,0.0008734
630,0.0007592,0.0007574,0.0007606,0.0007564,0.0007616,0.0007324,0.0007312,0.000733,0.0007288,0.0007328,0.007714,0.00771,0.007714,0.007712,0.007714,0.007682,0.00769,0.007684,0.007686,0.007678,0.0010824,0.0010812,0.0010814,0.0010796,0.0010792,0.0010204,0.0010194,0.0010186,0.0010206,0.0010196,0.001235,0.0012378,0.001244,0.00123,0.0012382,0.0011818,0.0011824,0.0011778,0.0011786,0.0011772
632,0.0009136,0.0009114,0.000917,0.0009102,0.0009178,0.0008834,0.0008808,0.0008848,0.0008776,0.000882,0.0074,0.007396,0.0074,0.007398,0.007402,0.007388,0.007392,0.007382,0.00738,0.007372,0.0014398,0.0014388,0.0014392,0.0014372,0.0014364,0.001368,0.0013666,0.001366,0.0013676,0.0013666,0.0016062,0.0016064,0.0016156,0.0015992,0.0016082,0.0015414,0.0015406,0.0015362,0.0015396,0.0015342
634,0.0010772,0.0010712,0.0010782,0.0010738,0.0010762,0.0010442,0.001039,0.0010414,0.0010368,0.00104,0.007028,0.007026,0.00703,0.007028,0.007032,0.00703,0.00703,0.00702,0.007018,0.007008,0.0018254,0.0018246,0.001825,0.0018226,0.0018216,0.001747,0.0017452,0.0017446,0.0017454,0.0017434,0.00201,0.00201,0.002018,0.002002,0.00201,0.0019334,0.0019346,0.0019298,0.0019282,0.0019256
636,0.0012486,0.0012444,0.0012494,0.0012472,0.0012514,0.001217,0.0012136,0.0012146,0.0012102,0.0012136,0.006596,0.006596,0.006598,0.006598,0.006602,0.006606,0.006602,0.006592,0.006592,0.006582,0.002252,0.00225,0.00225,0.002248,0.002248,0.00217,0.002168,0.002168,0.00217,0.002168,0.002456,0.002456,0.00246,0.002446,0.002458,0.002376,0.002376,0.00237,0.00237,0.002368
638,0.0014076,0.0013998,0.0014094,0.0014044,0.001409,0.0013756,0.0013702,0.00137,0.0013664,0.0013718,0.00621,0.00621,0.006212,0.006212,0.006214,0.006216,0.006212,0.006204,0.006202,0.006198,0.002622,0.002622,0.002622,0.00262,0.002618,0.002544,0.002542,0.002542,0.002542,0.002542,0.002834,0.002836,0.002842,0.002824,0.002838,0.002758,0.002758,0.00275,0.002754,0.00275
640,0.001554,0.0015468,0.0015554,0.0015532,0.001555,0.0015218,0.001517,0.0015162,0.0015114,0.0015176,0.005878,0.005874,0.005878,0.00588,0.005882,0.005874,0.005874,0.005866,0.005864,0.005866,0.002926,0.002926,0.002924,0.002924,0.002924,0.002856,0.002856,0.002854,0.002858,0.002856,0.003124,0.003126,0.00313,0.003118,0.003126,0.003056,0.003056,0.003048,0.003054,0.003052
642,0.0016876,0.0016808,0.0016886,0.0016876,0.0016896,0.001652,0.0016528,0.0016532,0.0016482,0.001652,0.005576,0.005574,0.005576,0.00558,0.00558,0.005566,0.005568,0.005564,0.005562,0.005564,0.00315,0.00315,0.003148,0.003148,0.003148,0.00309,0.00309,0.00309,0.003092,0.003092,0.003306,0.003304,0.003306,0.003298,0.003306,0.003252,0.00325,0.003244,0.00325,0.003246
644,0.0018152,0.0018066,0.0018176,0.001815,0.0018168,0.0017808,0.001779,0.0017812,0.001778,0.0017816,0.005308,0.005306,0.00531,0.005312,0.005312,0.005298,0.0053,0.005298,0.0053,0.005302,0.0033,0.003302,0.0033,0.0033,0.003302,0.00325,0.003252,0.003252,0.003256,0.003254,0.003392,0.003386,0.003396,0.003384,0.003396,0.003352,0.003354,0.003348,0.003356,0.00335
646,0.0019528,0.0019434,0.0019498,0.0019502,0.0019552,0.0019176,0.0019218,0.0019172,0.001916,0.0019166,0.005038,0.005036,0.00504,0.00504,0.00504,0.005028,0.005032,0.005032,0.005034,0.005034,0.003354,0.003356,0.003354,0.003356,0.003358,0.00332,0.003322,0.003322,0.003326,0.003326,0.00337,0.003366,0.003362,0.003364,0.00337,0.003354,0.003354,0.003344,0.003352,0.003346
648,0.002064,0.002052,0.002062,0.00206,0.002064,0.002032,0.002034,0.002028,0.00203,0.002026,0.004822,0.00482,0.004824,0.004824,0.004826,0.004818,0.004822,0.004822,0.00482,0.004824,0.00326,0.003262,0.00326,0.003262,0.003264,0.00325,0.003252,0.003252,0.003254,0.003252,0.003198,0.003194,0.003194,0.003198,0.003202,0.003212,0.00321,0.003202,0.003216,0.003204
650,0.002154,0.00214,0.00215,0.002148,0.002152,0.002124,0.002126,0.002122,0.00212,0.00212,0.004606,0.004606,0.00461,0.00461,0.004612,0.004612,0.004618,0.004614,0.004614,0.004614,0.003016,0.003018,0.003016,0.003018,0.003022,0.003032,0.003034,0.003034,0.003034,0.00303,0.002904,0.002898,0.002902,0.0029,0.002908,0.002938,0.002938,0.002924,0.002932,0.002926
652,0.00221,0.002196,0.002206,0.002206,0.002206,0.002188,0.002188,0.00218,0.002182,0.00218,0.00437,0.004366,0.004372,0.00437,0.004374,0.004382,0.004386,0.00438,0.004378,0.004378,0.002668,0.002672,0.00267,0.002672,0.002676,0.0027,0.002702,0.002702,0.0027,0.002696,0.002562,0.00256,0.002554,0.002558,0.002562,0.002594,0.002594,0.002582,0.002586,0.002582
654,0.00225,0.002238,0.002246,0.002242,0.002248,0.002228,0.002232,0.002222,0.002224,0.00222,0.00413,0.00413,0.004132,0.004132,0.004136,0.004148,0.00415,0.004142,0.004138,0.004136,0.00233,0.002332,0.00233,0.002332,0.002336,0.002362,0.002362,0.00236,0.002358,0.002356,0.00226,0.00226,0.002258,0.002264,0.002264,0.00229,0.002286,0.00228,0.002282,0.002276
656,0.00229,0.002276,0.002286,0.002286,0.002286,0.00227,0.002272,0.002262,0.002264,0.002256,0.003898,0.003898,0.003902,0.0039,0.003902,0.003918,0.003914,0.003906,0.003902,0.003902,0.002054,0.002054,0.002054,0.002056,0.002058,0.00208,0.002078,0.002074,0.002074,0.00207,0.002032,0.00203,0.002034,0.002036,0.002036,0.002052,0.002046,0.002038,0.002044,0.002034
658,0.002324,0.00231,0.002318,0.00232,0.00232,0.002304,0.002304,0.002292,0.002296,0.00229,0.00373,0.00373,0.00373,0.003728,0.003732,0.003742,0.003738,0.00373,0.003724,0.003728,0.0018526,0.001854,0.0018536,0.0018546,0.0018572,0.0018806,0.001878,0.0018738,0.0018718,0.001871,0.0018536,0.0018516,0.0018492,0.0018556,0.001852,0.0018754,0.0018722,0.00186,0.0018666,0.0018584
660,0.00235,0.002334,0.002344,0.002344,0.002346,0.00233,0.00233,0.002318,0.002322,0.002316,0.003574,0.003574,0.003576,0.003574,0.003576,0.003584,0.00358,0.003574,0.003568,0.003572,0.001635,0.0016364,0.0016354,0.0016368,0.0016398,0.0016676,0.0016654,0.0016624,0.0016608,0.0016594,0.0016418,0.0016414,0.0016388,0.0016468,0.001638,0.0016688,0.0016682,0.0016542,0.001665,0.001656
662,0.002356,0.002342,0.00235,0.002352,0.00235,0.002334,0.00234,0.002326,0.00233,0.002322,0.00342,0.00342,0.00342,0.003416,0.00342,0.003428,0.003422,0.003418,0.003412,0.003414,0.0014106,0.001412,0.0014114,0.0014118,0.0014148,0.0014398,0.0014386,0.001437,0.0014356,0.0014346,0.001422,0.0014274,0.001424,0.0014284,0.0014184,0.0014446,0.001446,0.0014342,0.0014454,0.0014336
664,0.002298,0.002288,0.002296,0.002294,0.002298,0.00229,0.002292,0.002282,0.002284,0.002282,0.003208,0.003212,0.003212,0.003208,0.003212,0.003222,0.00322,0.003214,0.003212,0.003214,0.0012384,0.0012396,0.00124,0.0012402,0.0012422,0.0012542,0.001253,0.0012544,0.0012504,0.0012522,0.00126,0.0012682,0.0012594,0.0012748,0.0012592,0.0012694,0.0012762,0.0012634,0.001276,0.001265
666,0.002154,0.002144,0.002142,0.002142,0.002144,0.00215,0.002152,0.002142,0.002144,0.00214,0.002908,0.00291,0.00291,0.00291,0.00291,0.002928,0.002928,0.002926,0.002924,0.002928,0.0011384,0.0011376,0.0011378,0.0011374,0.0011398,0.0011438,0.0011432,0.0011446,0.00114,0.0011432,0.0011682,0.0011788,0.0011716,0.0011818,0.001161,0.0011678,0.0011714,0.0011634,0.0011732,0.0011666
668,0.0019624,0.0019526,0.0019532,0.0019554,0.0019538,0.0019576,0.001965,0.0019574,0.0019602,0.001957,0.002584,0.002588,0.002588,0.002586,0.002586,0.002608,0.00261,0.00261,0.002608,0.002612,0.0010228,0.0010226,0.001023,0.0010234,0.0010246,0.0010384,0.0010364,0.0010384,0.001036,0.0010378,0.001045,0.0010602,0.0010534,0.0010626,0.0010458,0.001063,0.0010674,0.001058,0.0010646,0.0010584
670,0.0017824,0.0017734,0.0017776,0.0017784,0.0017776,0.0017788,0.001782,0.001779,0.0017818,0.0017758,0.00229,0.002292,0.002292,0.00229,0.002288,0.00231,0.00231,0.002308,0.002308,0.002314,0.0008192,0.0008212,0.0008212,0.0008216,0.0008238,0.0008554,0.0008524,0.0008542,0.0008512,0.0008534,0.00084,0.0008458,0.0008476,0.0008584,0.0008352,0.0008722,0.0008752,0.0008656,0.000877,0.0008656
672,0.0016446,0.0016406,0.0016412,0.0016394,0.0016408,0.001637,0.0016418,0.0016376,0.0016462,0.0016358,0.002052,0.002054,0.002054,0.002054,0.002054,0.002068,0.00207,0.00207,0.002068,0.002074,0.0005514,0.0005532,0.0005542,0.0005542,0.0005562,0.000597,0.0005946,0.0005964,0.0005912,0.0005932,0.0005682,0.0005798,0.0005776,0.0005886,0.0005648,0.0006056,0.0006114,0.000603,0.0006134,0.000607
674,0.0015214,0.0015122,0.0015134,0.0015132,0.0015126,0.0015192,0.00152,0.0015196,0.0015244,0.0015172,0.0018404,0.0018404,0.0018422,0.0018384,0.0018372,0.0018558,0.0018574,0.0018572,0.001858,0.0018594,0.000292,0.0002924,0.0002938,0.0002936,0.000295,0.0003256,0.0003246,0.0003268,0.0003224,0.0003232,0.000316,0.000312,0.0003158,0.0003326,0.0003086,0.0003406,0.0003422,0.0003384,0.0003452,0.0003366
676,0.0013744,0.0013696,0.001369,0.0013712,0.00137,0.0013852,0.0013924,0.0013868,0.0013928,0.0013876,0.0016312,0.0016318,0.0016338,0.0016298,0.001629,0.0016552,0.0016558,0.0016554,0.0016578,0.0016572,0.00016668,0.00016698,0.00016712,0.00016792,0.00016924,0.00018432,0.00018172,0.00018446,0.00017902,0.00018152,0.00019162,0.00019404,0.00019518,0.0002028,0.00018962,0.0002008,0.0002088,0.0002018,0.0002084,0.0002026
678,0.0012112,0.0012044,0.0012044,0.0012072,0.0012036,0.001223,0.0012314,0.0012246,0.0012308,0.0012292,0.00141,0.0014104,0.0014142,0.001412,0.0014092,0.001442,0.001443,0.0014384,0.0014434,0.001443,0.0001223,0.00012332,0.0001236,0.0001236,0.00012406,0.00013076,0.00012722,0.00013094,0.00012588,0.00012742,0.00014932,0.00015422,0.00015128,0.00016044,0.0001427,0.00015134,0.00015804,0.0001521,0.00015842,0.0001521
680,0.0010684,0.001068,0.0010666,0.0010656,0.0010646,0.0010784,0.0010838,0.0010812,0.0010826,0.0010856,0.001231,0.0012286,0.0012322,0.0012308,0.0012276,0.001256,0.0012538,0.0012552,0.001253,0.0012516,0.00010872,0.00010834,0.00010984,0.00010894,0.00011016,0.00011338,0.00011046,0.0001127,0.00010896,0.00010948,0.00013326,0.00013274,0.00013758,0.0001483,0.00012922,0.00013536,0.00014264,0.00013736,0.00014182,0.00013448
682,0.000991,0.000989,0.0009896,0.000988,0.0009888,0.0009966,0.0009988,0.0010002,0.0009956,0.0010014,0.0011274,0.001128,0.00113,0.0011312,0.0011272,0.0011434,0.001143,0.0011454,0.0011434,0.0011398,0.00010412,0.00010352,0.00010598,0.00010504,0.0001042,0.00010808,0.00010524,0.00010606,0.00010336,0.0001044,0.00013128,0.00013044,0.00013668,0.00014572,0.00012666,0.0001322,0.00013422,0.0001333,0.00013486,0.00013002
684,0.000917,0.0009164,0.0009196,0.0009172,0.0009144,0.0009254,0.0009276,0.0009276,0.0009268,0.0009308,0.0010394,0.0010382,0.0010432,0.00104,0.001038,0.0010582,0.0010568,0.001057,0.0010572,0.0010542,0.0001023,0.0001014,0.00010344,0.0001013,0.00010194,0.00010534,0.00010054,0.00010358,0.00010068,0.0001007,0.00012936,0.00013306,0.00013508,0.0001448,0.00012284,0.00012678,0.0001378,0.00013242,0.00013356,0.00013164
686,0.0007772,0.0007798,0.0007796,0.0007778,0.0007736,0.0007972,0.0007996,0.0008012,0.0007988,0.000805,0.0008866,0.0008826,0.0008856,0.000885,0.0008814,0.0009136,0.0009088,0.000913,0.0009144,0.000908,9.758e-05,9.666e-05,9.942e-05,9.728e-05,9.736e-05,0.0001009,9.656e-05,9.886e-05,9.674e-05,9.682e-05,0.0001253,0.00012636,0.00012708,0.00013522,0.00012332,0.00012562,0.0001287,0.00012952,0.000136,0.00012402
688,0.0005694,0.000574,0.0005738,0.000567,0.000566,0.0005992,0.0006012,0.0006006,0.0006008,0.0006074,0.0006564,0.0006546,0.0006542,0.0006568,0.0006538,0.0006898,0.000686,0.0006898,0.0006928,0.0006864,9.234e-05,9.206e-05,9.38e-05,9.19e-05,9.338e-05,9.66e-05,9.232e-05,9.428e-05,9.316e-05,9.148e-05,0.00012188,0.00012134,0.00012228,0.0001309,0.00011946,0.00011914,0.00012762,0.00012314,0.00013066,0.0001219
690,0.0003596,0.0003596,0.0003584,0.000359,0.0003564,0.000382,0.0003866,0.0003842,0.0003876,0.0003974,0.0004184,0.0004182,0.0004166,0.0004206,0.0004182,0.0004494,0.000445,0.0004512,0.0004534,0.0004468,8.708e-05,8.55e-05,8.824e-05,8.682e-05,8.838e-05,9.244e-05,8.622e-05,8.83e-05,8.744e-05,8.492e-05,0.000116,0.00011974,0.00012582,0.0001264,0.0001109,0.00011796,0.000124,0.00011876,0.0001218,0.00011766
692,0.0002,0.0002012,0.0002054,0.0001988,0.00019962,0.000212,0.0002114,0.0002146,0.0002156,0.0002248,0.0002416,0.000238,0.0002396,0.0002426,0.0002378,0.0002578,0.000254,0.000258,0.000259,0.000254,8.118e-05,8.092e-05,8.4e-05,8.302e-05,8.296e-05,8.474e-05,8.156e-05,8.358e-05,8.148e-05,8.118e-05,0.00011406,0.00011848,0.00012118,0.00012124,0.0001103,0.0001096,0.00011788,0.00012214,0.00011982,0.0001152
694,0.00013478,0.00013818,0.0001418,0.0001321,0.00013462,0.00013816,0.00013516,0.00014048,0.00014054,0.00015242,0.00016818,0.00016454,0.000165,0.00016914,0.0001634,0.00017082,0.00016494,0.0001746,0.00017902,0.00016856,7.82e-05,7.666e-05,7.872e-05,7.894e-05,7.838e-05,8.032e-05,7.684e-05,7.884e-05,7.894e-05,7.738e-05,0.00010462,0.00011296,0.00011722,0.00011072,0.00010794,0.0001042,0.00011534,0.00011408,0.00011312,0.00011384
696,0.0001091,0.00011412,0.0001171,0.00011248,0.00011144,0.00011384,0.00011278,0.00011526,0.00011592,0.0001251,0.0001417,0.0001381,0.00013838,0.00014294,0.000138,0.0001397,0.00013182,0.00014534,0.00014264,0.00013804,7.37e-05,7.392e-05,7.44e-05,7.284e-05,7.452e-05,7.848e-05,7.23e-05,7.416e-05,7.406e-05,7.184e-05,0.00010262,0.00010708,0.00011212,0.000101,0.00010802,0.00010466,0.00011238,0.00010732,0.00010734,0.00011282
698,0.00010164,0.00010652,0.00011078,9.862e-05,0.00010198,0.00010418,0.00010418,0.00010756,0.00010508,0.00011668,0.00012958,0.00012626,0.00012354,0.00013084,0.00012664,0.00012682,0.00011958,0.00013306,0.00013274,0.00012588,6.974e-05,7.01e-05,7.044e-05,6.928e-05,7.046e-05,7.212e-05,6.8e-05,7.056e-05,7.066e-05,6.842e-05,9.864e-05,0.00010006,0.00010548,0.00010264,0.00010556,9.804e-05,0.00011554,0.00010864,0.00010644,0.00010984
700,9.372e-05,0.00010036,0.00010684,9.318e-05,9.652e-05,9.384e-05,9.496e-05,9.956e-05,0.00010032,0.0001144,0.00012108,0.0001189,0.00011344,0.00011906,0.00011588,0.00011726,0.00011118,0.00012332,0.00012092,0.00011716,6.51e-05,6.776e-05,6.648e-05,6.424e-05,6.74e-05,6.798e-05,6.46e-05,6.554e-05,6.732e-05,6.7e-05,9.528e-05,9.5e-05,0.00010698,0.00010532,0.00010476,9.286e-05,0.00012146,0.00010872,9.864e-05,0.00010728
702,8.724e-05,8.894e-05,9.848e-05,9.118e-05,9.218e-05,9.32e-05,9.162e-05,8.786e-05,9.33e-05,0.00010608,0.0001138,0.00010616,0.00010594,0.00011166,0.00011024,0.00010812,0.00010118,0.00011412,0.00011816,0.0001111,6.23e-05,6.32e-05,6.112e-05,6.044e-05,6.198e-05,6.352e-05,6.068e-05,5.974e-05,6.092e-05,6.056e-05,9.582e-05,8.108e-05,9.988e-05,8.93e-05,0.00010182,9.918e-05,0.00011224,0.0001018,9.174e-05,0.00010342
704,7.844e-05,8.446e-05,9.388e-05,8.584e-05,8.808e-05,8.452e-05,8.594e-05,8.59e-05,8.858e-05,9.964e-05,0.0001069,0.00010318,0.00010026,0.00010344,0.00010246,0.00010368,9.888e-05,0.00010478,0.0001088,0.00010538,5.702e-05,5.856e-05,5.664e-05,5.56e-05,5.738e-05,5.994e-05,5.578e-05,5.746e-05,5.938e-05,5.584e-05,9.408e-05,8.308e-05,0.00010002,8.636e-05,0.00010012,9.108e-05,0.00010752,0.00010026,8.67e-05,9.764e-05
706,7.728e-05,8.3e-05,8.95e-05,8.258e-05,8.808e-05,8.252e-05,8.158e-05,7.966e-05,8.524e-05,9.798e-05,9.996e-05,0.00010034,9.522e-05,9.916e-05,9.854e-05,9.8e-05,9.382e-05,0.00010058,0.00010034,9.864e-05,5.294e-05,5.452e-05,5.198e-05,5.15e-05,5.376e-05,5.588e-05,5.176e-05,5.298e-05,5.684e-05,5.212e-05,8.348e-05,8.142e-05,0.00010356,8.334e-05,9.68e-05,8.314e-05,0.00010544,9.554e-05,8.34e-05,9.472e-05
708,7.274e-05,7.74e-05,7.852e-05,7.602e-05,8.072e-05,7.734e-05,8.236e-05,7.308e-05,8.39e-05,9.57e-05,9.564e-05,9.798e-05,9.316e-05,9.486e-05,9.542e-05,9.53e-05,9.152e-05,9.6e-05,9.818e-05,9.616e-05,4.916e-05,5.204e-05,4.978e-05,4.748e-05,5.204e-05,5.348e-05,5.114e-05,5.078e-05,5.466e-05,4.962e-05,7.832e-05,7.958e-05,9.4e-05,7.578e-05,9.402e-05,8.906e-05,9.7e-05,9.138e-05,7.55e-05,0.00010046
710,6.688e-05,7.35e-05,8.49e-05,6.462e-05,7.882e-05,7.582e-05,8.262e-05,7.426e-05,8.014e-05,8.98e-05,8.892e-05,9.522e-05,8.858e-05,8.97e-05,9.238e-05,8.754e-05,8.686e-05,9.68e-05,9.218e-05,9.1e-05,4.646e-05,4.79e-05,4.476e-05,4.534e-05,4.85e-05,4.82e-05,4.596e-05,4.57e-05,5.096e-05,4.772e-05,8.172e-05,7.974e-05,8.934e-05,6.754e-05,9.474e-05,8.436e-05,0.00010624,9.312e-05,7.09e-05,9.452e-05
712,5.556e-05,6.904e-05,8.048e-05,6.966e-05,7.854e-05,7.232e-05,7.522e-05,7.256e-05,8.728e-05,8.24e-05,8.646e-05,8.914e-05,8.714e-05,8.766e-05,9.006e-05,8.986e-05,8.138e-05,9.316e-05,8.982e-05,8.718e-05,4.398e-05,4.512e-05,4.314e-05,4.342e-05,4.506e-05,4.636e-05,4.492e-05,4.606e-05,4.81e-05,4.426e-05,7.654e-05,6.924e-05,8.432e-05,6.752e-05,9.588e-05,8.432e-05,9.48e-05,7.95e-05,6.418e-05,8.698e-05
714,5.294e-05,6.076e-05,7.434e-05,6.684e-05,7.786e-05,7.15e-05,7.366e-05,6.07e-05,7.806e-05,7.856e-05,8.368e-05,8.556e-05,7.92e-05,8.274e-05,8.712e-05,8.728e-05,7.954e-05,8.874e-05,8.424e-05,8.28e-05,4.186e-05,4.342e-05,3.926e-05,4.056e-05,4.204e-05,4.314e-05,4.326e-05,4.308e-05,4.736e-05,4.26e-05,6.92e-05,6.826e-05,8.258e-05,6.566e-05,9.164e-05,7.272e-05,8.772e-05,7.758e-05,6.394e-05,8.92e-05
716,5.046e-05,5.702e-05,6.954e-05,6.286e-05,7.356e-05,6.918e-05,6.75e-05,6.132e-05,7.57e-05,7.234e-05,7.852e-05,8.402e-05,7.568e-05,8.266e-05,8.686e-05,8.07e-05,7.978e-05,8.674e-05,8.16e-05,8.228e-05,3.97e-05,4.072e-05,3.696e-05,3.882e-05,4.022e-05,4.052e-05,4.024e-05,3.976e-05,4.422e-05,4.07e-05,7.278e-05,8.112e-05,8.012e-05,6.154e-05,8.552e-05,6.66e-05,7.812e-05,7.136e-05,6.24e-05,8.472e-05
718,4.958e-05,6.078e-05,6.908e-05,5.996e-05,6.706e-05,6.28e-05,6.352e-05,5.598e-05,7.454e-05,6.59e-05,7.508e-05,8.338e-05,7.572e-05,7.178e-05,8.226e-05,8.272e-05,8.018e-05,8.29e-05,7.996e-05,7.698e-05,3.8e-05,3.776e-05,3.564e-05,3.722e-05,3.818e-05,3.982e-05,3.842e-05,3.78e-05,4.292e-05,3.94e-05,7.004e-05,7.062e-05,6.16e-05,5.248e-05,8.268e-05,6.376e-05,7.472e-05,5.988e-05,5.202e-05,8.188e-05
720,3.666e-05,5.35e-05,6.842e-05,5.448e-05,6.466e-05,5.988e-05,6.412e-05,5.128e-05,6.412e-05,5.74e-05,7.1e-05,7.878e-05,6.938e-05,6.894e-05,7.85e-05,7.638e-05,7.358e-05,7.126e-05,7.194e-05,6.914e-05,3.504e-05,3.614e-05,3.156e-05,3.284e-05,3.818e-05,3.54e-05,3.642e-05,3.52e-05,4.012e-05,3.646e-05,6.37e-05,7.376e-05,6.622e-05,4.842e-05,7.78e-05,6.128e-05,7.766e-05,6.93e-05,5.774e-05,7.056e-05
722,3.968e-05,5.14e-05,6.052e-05,5.596e-05,6.31e-05,5.834e-05,6.036e-05,4.658e-05,5.806e-05,5.018e-05,6.688e-05,7.25e-05,6.796e-05,6.68e-05,6.934e-05,7.156e-05,6.96e-05,6.972e-05,7.294e-05,6.99e-05,3.502e-05,3.496e-05,3.176e-05,3.194e-05,3.53e-05,3.224e-05,3.554e-05,3.446e-05,4.016e-05,3.402e-05,6.736e-05,7.984e-05,5.652e-05,5.042e-05,7.808e-05,5.422e-05,7.79e-05,5.86e-05,4.714e-05,6.85e-05
724,3.854e-05,4.674e-05,5.52e-05,5.446e-05,5.586e-05,5.534e-05,5.554e-05,4.132e-05,5.306e-05,4.392e-05,6.508e-05,7.222e-05,6.548e-05,6.5e-05,6.632e-05,6.818e-05,6.66e-05,6.396e-05,7.072e-05,6.518e-05,3.398e-05,3.254e-05,3.036e-05,3.226e-05,3.166e-05,3.15e-05,3.482e-05,3.216e-05,3.77e-05,3.3e-05,6.482e-05,7.128e-05,4.724e-05,4.838e-05,7.574e-05,5.866e-05,7.178e-05,5.928e-05,4.108e-05,7.078e-05
726,3.908e-05,4.444e-05,5.344e-05,4.154e-05,5.05e-05,5.05e-05,5.186e-05,3.356e-05,5.25e-05,3.682e-05,5.854e-05,7.14e-05,5.676e-05,5.832e-05,6.822e-05,6.59e-05,6.516e-05,6.114e-05,6.348e-05,6.152e-05,3.224e-05,3.116e-05,2.852e-05,3.11e-05,3.36e-05,3.276e-05,3.77e-05,3.122e-05,3.556e-05,3.212e-05,6.308e-05,7.398e-05,5.838e-05,4.844e-05,6.964e-05,5.076e-05,6.174e-05,5.954e-05,4.6e-05,6.422e-05
728,4.058e-05,4.526e-05,5.042e-05,4.756e-05,4.58e-05,5.242e-05,5.108e-05,2.602e-05,5.03e-05,2.68e-05,5.462e-05,6.386e-05,5.808e-05,5.278e-05,6.498e-05,5.992e-05,6.68e-05,6.138e-05,6.522e-05,5.73e-05,3.182e-05,3.048e-05,3.07e-05,2.992e-05,3.244e-05,3.11e-05,3.66e-05,3.32e-05,3.448e-05,3.246e-05,6.442e-05,7.594e-05,5.792e-05,4.966e-05,7.362e-05,4.074e-05,5.626e-05,5.094e-05,4.686e-05,5.656e-05
730,3.888e-05,4.576e-05,4.846e-05,4.692e-05,4.416e-05,4.876e-05,4.464e-05,2.644e-05,4.92e-05,3.074e-05,5.442e-05,6.094e-05,5.464e-05,5.416e-05,5.81e-05,6.084e-05,6.278e-05,5.678e-05,6.202e-05,5.904e-05,3.132e-05,3.148e-05,2.934e-05,2.706e-05,3.268e-05,3.134e-05,3.906e-05,3.204e-05,3.452e-05,3.142e-05,6.08e-05,6.86e-05,5.978e-05,5.406e-05,7.032e-05,4.956e-05,5.042e-05,5.13e-05,4.424e-05,5.606e-05
732,3.678e-05,4.318e-05,3.99e-05,4.708e-05,4.152e-05,4.964e-05,4.26e-05,2.94e-05,4.242e-05,2.054e-05,5.618e-05,6.034e-05,5.436e-05,5.282e-05,5.894e-05,5.798e-05,6.43e-05,5.432e-05,5.54e-05,5.338e-05,3.024e-05,3.082e-05,2.776e-05,2.73e-05,3.162e-05,3.144e-05,3.658e-05,3.238e-05,3.286e-05,3.152e-05,5.308e-05,7.792e-05,6.032e-05,5.128e-05,6.472e-05,4.214e-05,4.028e-05,4.66e-05,4.926e-05,5.426e-05
734,2.874e-05,3.546e-05,3.25e-05,4.544e-05,3.876e-05,4.414e-05,3.684e-05,2.754e-05,3.892e-05,1.2e-05,4.824e-05,5.892e-05,5.408e-05,5.348e-05,6.21e-05,5.096e-05,5.868e-05,5.13e-05,5.096e-05,5.516e-05,3.138e-05,2.92e-05,2.478e-05,2.81e-05,2.89e-05,2.886e-05,3.706e-05,2.904e-05,3.156e-05,2.972e-05,4.814e-05,6.32e-05,4.406e-05,5.456e-05,5.062e-05,3.286e-05,3.78e-05,4.39e-05,4.066e-05,4.122e-05
736,2.446e-05,3.42e-05,2.986e-05,3.928e-05,3.284e-05,3.766e-05,2.824e-05,2.492e-05,3.404e-05,1.1358e-05,4.99e-05,5.028e-05,4.296e-05,5.52e-05,5.04e-05,4.852e-05,5.728e-05,4.586e-05,5.356e-05,4.676e-05,2.504e-05,2.242e-05,2.15e-05,2.518e-05,2.702e-05,2.592e-05,3.536e-05,2.754e-05,2.586e-05,2.88e-05,4.056e-05,6.288e-05,1.8908e-05,5.282e-05,5.198e-05,2.608e-05,2.944e-05,3.728e-05,4.028e-05,4.058e-05
738,2.798e-05,3.364e-05,1.9662e-05,3.648e-05,2.54e-05,3.528e-05,2.502e-05,2.358e-05,2.236e-05,5.24e-06,4.124e-05,4.878e-05,3.856e-05,5.01e-05,5.14e-05,5.322e-05,6.196e-05,4.578e-05,4.478e-05,4.614e-05,2.348e-05,1.7422e-05,1.9786e-05,2.204e-05,2.412e-05,2.586e-05,3.13e-05,2.542e-05,2.374e-05,2.61e-05,4.336e-05,6.272e-05,3.438e-05,5.064e-05,3.914e-05,2.424e-05,2.336e-05,3.262e-05,3.054e-05,3.284e-05
740,1.7254e-05,3.078e-05,9.152e-06,2.734e-05,2.418e-05,2.95e-05,1.778e-05,1.7772e-05,2.58e-05,2.466e-06,4.46e-05,4.86e-05,4.052e-05,4.394e-05,4.848e-05,5.222e-05,5.832e-05,4.44e-05,4.336e-05,4.774e-05,2.158e-05,1.627e-05,1.8824e-05,2.032e-05,2.208e-05,2.18e-05,2.946e-05,2.208e-05,2.158e-05,2.298e-05,4.182e-05,6.856e-05,3.264e-05,4.946e-05,3.348e-05,2.574e-05,2.03e-05,3.294e-05,3.262e-05,2.846e-05
742,1.559e-05,2.63e-05,7.722e-06,2.79e-05,2.324e-05,2.886e-05,1.6612e-05,1.3724e-05,2.678e-05,0,3.986e-05,4.002e-05,4.406e-05,4.524e-05,4.102e-05,5.462e-05,5.416e-05,4.218e-05,4.03e-05,4.442e-05,1.7624e-05,1.6594e-05,1.813e-05,1.8932e-05,2.08e-05,2.086e-05,2.778e-05,1.9034e-05,1.8788e-05,1.832e-05,2.95e-05,5.646e-05,1.8708e-05,5.738e-05,2.672e-05,3.46e-05,6.048e-06,2.892e-05,4.41e-05,2.238e-05
744,2.552e-05,2.756e-05,1.4768e-05,2.638e-05,1.196e-05,2.55e-05,1.4438e-05,1.469e-05,1.9842e-05,0,3.172e-05,4.284e-05,4.632e-05,4.93e-05,4.446e-05,5.044e-05,5.72e-05,3.9e-05,3.226e-05,5.238e-05,1.6172e-05,1.6652e-05,1.2956e-05,1.7532e-05,1.807e-05,2.068e-05,2.646e-05,1.9802e-05,1.8698e-05,1.6866e-05,3.352e-05,6.264e-05,2.238e-05,5.834e-05,2.166e-05,2.476e-05,4.036e-06,3.74e-05,3.794e-05,1.2456e-05
746,2.028e-05,3.216e-05,2.024e-06,2.55e-05,1.03e-05,1.5874e-05,9.844e-06,1.0984e-05,9.752e-06,0,3.87e-05,4.068e-05,3.906e-05,4.422e-05,4.6e-05,5.122e-05,4.88e-05,4.096e-05,3.04e-05,5.314e-05,1.3762e-05,1.1882e-05,1.5504e-05,1.5456e-05,1.5744e-05,1.9462e-05,2.584e-05,1.9204e-05,1.3258e-05,1.622e-05,2.026e-05,4.576e-05,2.338e-05,5.424e-05,2.652e-05,2.282e-05,4.082e-06,3.148e-05,3.358e-05,1.1388e-05
748,1.689e-05,3.08e-05,0,1.698e-05,8.428e-06,1.4334e-05,1.123e-05,8.044e-06,1.5222e-05,0,4.288e-05,4.2e-05,4.046e-05,4.814e-05,3.924e-05,4.976e-05,5.35e-05,4.18e-05,3.076e-05,5.034e-05,1.0564e-05,1.155e-05,1.1784e-05,1.495e-05,1.4922e-05,1.903e-05,2.222e-05,1.612e-05,1.1368e-05,1.799e-05,2.6e-05,2.728e-05,2.398e-05,5.654e-05,1.5968e-05,3.612e-05,0,3.708e-05,3.398e-05,1.4546e-05
750,2.094e-05,3.142e-05,0,2.31e-05,2.092e-06,4.49e-06,1.5928e-05,1.261e-05,6.984e-06,0,4.048e-05,3.758e-05,4.018e-05,4.494e-05,3.6e-05,5.262e-05,4.956e-05,3.816e-05,3.456e-05,4.468e-05,1.098e-05,1.1884e-05,1.4048e-05,1.1268e-05,1.581e-05,1.7096e-05,2.366e-05,1.511e-05,1.0864e-05,1.7262e-05,1.3588e-05,4.22e-05,3.212e-05,4.61e-05,1.312e-05,3.116e-05,0,3.138e-05,3.458e-05,1.1616e-05
752,2.204e-05,3.196e-05,0,1.104e-05,6.956e-06,1.9206e-05,4.916e-06,1.1324e-05,7.582e-06,1.546e-06,4.04e-05,3.696e-05,4.146e-05,4.972e-05,4.286e-05,5.592e-05,5.114e-05,3.898e-05,3.888e-05,5.108e-05,8.92e-06,1.228e-05,1.1928e-05,1.492e-05,1.7694e-05,2.27e-05,2.274e-05,1.83e-05,1.4156e-05,1.6312e-05,2.844e-05,3.494e-05,2.504e-05,7.232e-05,2.902e-05,4.204e-05,0,4.234e-05,4.376e-05,7.236e-07
754,2.4e-05,3.31e-05,0,1.7822e-05,0,9.652e-06,6.964e-06,1.7922e-05,6.748e-06,2.83e-06,3.84e-05,3.856e-05,5.11e-05,5.058e-05,3.474e-05,5.326e-05,4.642e-05,4.402e-05,3.298e-05,5.04e-05,8.182e-06,1.4652e-05,1.3918e-05,1.4736e-05,1.1702e-05,2.128e-05,2.096e-05,1.5414e-05,1.177e-05,1.6548e-05,2.75e-05,4.352e-05,3.676e-05,5.356e-05,1.4664e-05,3.684e-05,6.576e-07,1.3062e-05,4.032e-05,3.288e-06
756,2.288e-05,2.67e-05,0,1.0314e-05,2.614e-06,5.488e-06,8.674e-06,1.4162e-05,5.684e-06,4.786e-06,4.176e-05,3.568e-05,5.438e-05,4.212e-05,3.322e-05,5.034e-05,4.394e-05,3.902e-05,3.518e-05,5.68e-05,4.824e-06,1.435e-05,1.2432e-05,1.953e-05,9.476e-06,2.358e-05,1.976e-05,1.5216e-05,1.5184e-05,1.6976e-05,1.5572e-05,2.174e-05,3.908e-05,5.814e-05,1.4146e-05,4.56e-05,1.1762e-05,1.9506e-05,3.798e-05,1.3434e-05
758,3.438e-05,2.616e-05,3.826e-06,1.2142e-05,8.328e-06,5.928e-06,7.262e-06,1.7162e-05,1.9688e-06,2.636e-06,4.378e-05,2.806e-05,5.196e-05,4.19e-05,4.028e-05,5.91e-05,5.146e-05,3.82e-05,2.8e-05,5.192e-05,5.986e-06,1.4364e-05,1.3566e-05,1.7196e-05,9.184e-06,2.258e-05,2.106e-05,1.5582e-05,1.272e-05,1.8428e-05,8.292e-06,1.067e-05,5.058e-05,6.716e-05,2.57e-05,4.53e-05,9.364e-06,3.85e-05,4.102e-05,5.1e-06
760,3.13e-05,3.88e-05,8.202e-07,1.5584e-05,4.85e-06,1.1434e-05,1.6772e-05,7.686e-06,1.1108e-05,1.2942e-05,3.952e-05,4.278e-05,5.656e-05,4.548e-05,3.622e-05,6.8e-05,5.036e-05,4.512e-05,3.88e-05,5.946e-05,7.642e-06,1.159e-05,1.2954e-05,1.4798e-05,1.061e-05,2.282e-05,1.8446e-05,2.188e-05,1.1024e-05,1.368e-05,2.102e-05,4.004e-05,2.316e-05,4.906e-05,3.304e-05,3.74e-05,1.3048e-06,3.276e-05,4.346e-05,0
762,2.422e-05,4.484e-05,0,6.846e-06,3.164e-06,1.142e-05,1.1482e-05,8.834e-06,1.6346e-05,1.5822e-05,4.71e-05,4.084e-05,4.66e-05,4.234e-05,3.614e-05,4.554e-05,4.598e-05,3.882e-05,3.162e-05,5.15e-05,4.634e-06,1.701e-05,2.016e-05,1.69e-05,1.2724e-05,2.67e-05,1.7776e-05,2.014e-05,8.73e-06,1.7602e-05,2.478e-05,2.542e-05,1.566e-05,6.434e-05,2.812e-05,5.028e-05,2.058e-05,4.246e-05,5.378e-05,0
764,2.304e-05,3.24e-05,3.96e-06,4.198e-06,6.974e-06,0,7.56e-06,2.974e-05,8.916e-06,2.068e-05,4.174e-05,3.95e-05,4.098e-05,4.508e-05,2.498e-05,4.924e-05,4.626e-05,4.828e-05,3.178e-05,6.074e-05,5.362e-06,1.449e-05,1.758e-05,1.9968e-05,1.2698e-05,2.67e-05,1.2586e-05,1.5626e-05,1.1064e-05,1.4448e-05,1.9456e-05,3.696e-05,4.598e-05,5.632e-05,3.03e-05,6.324e-05,2.992e-05,4.844e-05,5.496e-05,0
766,3.14e-05,3.76e-05,3.28e-06,8.452e-06,7.278e-06,0,2.166e-05,2.808e-05,1.663e-05,3.356e-05,4.914e-05,3.59e-05,4.702e-05,5.426e-05,2.168e-05,5.964e-05,5.158e-05,5.008e-05,2.854e-05,5.312e-05,1.2864e-06,1.674e-05,1.57e-05,2.018e-05,1.217e-05,2.71e-05,1.3782e-05,1.8e-05,1.0132e-05,1.5146e-05,1.013e-05,2.312e-05,3.356e-05,4.722e-05,2.428e-05,7.544e-05,4.398e-05,6.392e-05,4.99e-05,1.202e-05
768,4.17e-05,2.034e-05,0,1.9118e-06,1.4396e-05,0,1.6182e-05,2.558e-05,2.244e-05,1.694e-05,5e-05,2.778e-05,4.84e-05,4.354e-05,3.61e-05,5.61e-05,5.642e-05,5.008e-05,2.764e-05,5.098e-05,3.258e-06,1.979e-05,1.5146e-05,1.733e-05,7.054e-06,3.248e-05,1.3592e-05,1.7006e-05,1.8458e-05,1.9294e-05,1.556e-05,3.606e-05,3.344e-05,3.628e-05,4.798e-05,8.016e-05,3.184e-05,6.674e-05,7.25e-05,2.444e-05
770,2.604e-05,4.198e-05,5.996e-07,1.087e-05,8.93e-06,0,1.5762e-05,2.406e-05,2.858e-05,3.326e-05,5.412e-05,3.448e-05,4.702e-05,4.266e-05,3.02e-05,5.278e-05,5.23e-05,3.81e-05,3.954e-05,5.158e-05,4.678e-06,1.6714e-05,2.202e-05,1.9316e-05,1.0392e-05,2.96e-05,1.2356e-05,2.726e-05,1.8022e-05,1.7444e-05,3.678e-05,2.052e-05,5.962e-05,3.404e-05,4.056e-05,5.378e-05,5.442e-05,7.768e-05,5.802e-05,1.0316e-05
772,3.184e-05,3.662e-05,1.5272e-06,1.2318e-05,2.168e-05,0,2.63e-05,2.034e-05,2.908e-05,4.632e-05,4.554e-05,2.402e-05,4.398e-05,4.5e-05,3.752e-05,4.822e-05,4.794e-05,3.57e-05,3.194e-05,5.406e-05,5.688e-06,1.6148e-05,1.6392e-05,1.9924e-05,1.4592e-05,2.806e-05,1.1378e-05,2.464e-05,1.7524e-05,2.082e-05,3.862e-05,0,4.514e-05,5.148e-05,5.298e-05,7.272e-05,4.646e-05,6.502e-05,8.152e-05,1.3952e-05
774,2.544e-05,3.748e-05,0,2.026e-05,2.16e-05,9.22e-06,2.01e-05,3.376e-05,3.778e-05,6.852e-05,4.452e-05,2.248e-05,4.07e-05,4.706e-05,3.634e-05,4.868e-05,4.526e-05,3.814e-05,2.288e-05,4.098e-05,7.622e-06,2.062e-05,2.108e-05,1.765e-05,1.351e-05,3.036e-05,8.522e-06,2.496e-05,2.546e-05,2.57e-05,4.526e-05,1.8618e-05,7.848e-05,3.3e-05,5.152e-05,6.978e-05,7.706e-05,7.076e-05,7.162e-05,2.616e-05
776,2.444e-05,3.056e-05,5.07e-06,1.4558e-05,1.7912e-05,2.314e-05,3.32e-05,2.232e-05,4.39e-05,7.392e-05,3.566e-05,2.672e-05,4.24e-05,4.54e-05,3.058e-05,5.27e-05,4.588e-05,4.968e-05,2.932e-05,4.806e-05,2.632e-06,1.8666e-05,1.8958e-05,1.4688e-05,1.4306e-05,2.976e-05,9.126e-06,1.9326e-05,2.66e-05,1.9234e-05,3.888e-05,2.546e-05,9.136e-05,4.438e-05,6.36e-05,7.844e-05,9.284e-05,0.00010172,6.848e-05,2.28e-05
778,3.2e-05,3.384e-05,1.0538e-05,1.2696e-05,3.254e-05,2.188e-05,3.648e-05,1.6774e-05,7.002e-05,9.154e-05,4.624e-05,2.86e-05,4.402e-05,2.586e-05,4.104e-05,4.39e-05,4.756e-05,5.602e-05,3.266e-05,3.49e-05,7.83e-06,2.348e-05,1.9748e-05,2.178e-05,8.83e-06,3.358e-05,1.1276e-05,1.6368e-05,3.056e-05,2.606e-05,7.946e-05,1.1798e-05,4.934e-05,4.064e-05,5.356e-05,7.038e-05,9.874e-05,8.032e-05,8.456e-05,4.818e-05
780,4.814e-05,1.4448e-05,1.1764e-05,1.7626e-05,1.3436e-05,2.88e-05,4.758e-05,1.5674e-05,6.58e-05,9.862e-05,4.3e-05,1.6038e-05,3.984e-05,3.608e-05,4.222e-05,4.572e-05,2.716e-05,4.404e-05,4.276e-05,3.474e-05,1.0636e-05,2.326e-05,1.7204e-05,2.182e-05,1.037e-05,3.358e-05,9.696e-06,1.9694e-05,3.078e-05,2.866e-05,6.404e-05,5.3e-05,5.704e-05,5.83e-05,6.2e-05,7.296e-05,9.822e-05,0.00010058,8.688e-05,4.416e-05
