Wavelength [nm],Background (Mel),Modulation (Mel),Background (LMS),Modulation (LMS)380,7.24e-06,7.124e-06,1.679e-05,8.09e-06,1.2914e-05,1.3192e-05,2.308e-05,1.4936e-05,3.904e-07,9.052e-06,1.2696e-05,1.1058e-05,4.72e-06,1.3206e-05,5.296e-06,1.525e-05,7.748e-06,1.6894e-05,1.2398e-05,6.656e-06,4.172e-06,4.908e-06,5.156e-06,3.512e-06,3.546e-07,7.762e-06,4.868e-06,5.428e-06,6.486e-06,4.13e-06,2.584e-05,2.44e-05,3.044e-05,1.2852e-05,1.3432e-05,3.456e-05,1.123e-05,1.43e-05,2.508e-05,1.3846e-05
382,6.146e-06,3.66e-06,2.114e-05,3.392e-06,1.3068e-05,1.2916e-05,1.8144e-05,9.83e-06,1.9528e-06,3.134e-06,1.131e-05,1.4112e-05,1.0876e-06,1.343e-05,8.758e-06,1.134e-05,5.884e-06,1.4678e-05,1.2508e-05,1.0274e-05,6.826e-06,5.592e-06,4.482e-06,4.524e-06,9.878e-07,7.672e-06,3.624e-06,6.744e-06,4.888e-06,2.59e-06,3.156e-05,1.658e-05,3.026e-05,1.4428e-05,1.324e-05,2.656e-05,1.131e-05,1.801e-05,2.144e-05,6.726e-06
384,2.184e-06,5.742e-06,1.5876e-05,5.258e-06,1.4994e-05,1.1206e-05,1.934e-05,1.0348e-05,4.254e-07,4.148e-06,1.1286e-05,1.6628e-05,6.408e-06,1.6108e-05,1.1034e-05,1.3618e-05,5.132e-06,1.329e-05,1.1972e-05,8.466e-06,5.364e-06,5.162e-06,5.082e-06,4.178e-06,1.106e-06,7.824e-06,4.614e-06,5.868e-06,6.34e-06,2.824e-06,3.16e-05,8.832e-06,2.368e-05,1.2436e-05,1.2148e-05,2.436e-05,1.7106e-05,2.096e-05,1.8412e-05,4.29e-06
386,3.49e-06,5.12e-06,1.3418e-05,5.916e-06,1.5946e-05,1.2952e-05,1.822e-05,1.4518e-05,9.236e-07,6.504e-06,1.002e-05,1.6462e-05,5.84e-06,1.1834e-05,1.1696e-05,1.5148e-05,5.73e-06,1.3192e-05,1.1484e-05,9.046e-06,5.118e-06,5.048e-06,5.91e-06,5.472e-06,1.8894e-06,7.088e-06,4.216e-06,5.208e-06,5.63e-06,3.422e-06,2.614e-05,1.6798e-05,2.844e-05,1.2034e-05,1.3572e-05,3.118e-05,1.4124e-05,1.939e-05,1.5768e-05,1.0734e-05
388,5.53e-06,4.436e-06,1.254e-05,2.588e-06,1.368e-05,1.2904e-05,1.5844e-05,1.418e-05,0,4.064e-06,1.2212e-05,1.5884e-05,6.962e-06,1.247e-05,1.2232e-05,1.7572e-05,8.726e-06,1.3812e-05,1.0174e-05,5.36e-06,5.682e-06,3.952e-06,5.46e-06,4.302e-06,1.8632e-06,7.296e-06,4.82e-06,5.866e-06,4.56e-06,4.076e-06,2.106e-05,1.751e-05,2.7e-05,1.1556e-05,7.982e-06,2.8e-05,1.4426e-05,1.6288e-05,1.642e-05,1.1022e-05
390,7.998e-06,4.676e-06,1.3532e-05,2.05e-06,8.432e-06,1.0722e-05,2.124e-05,1.3952e-05,8.818e-07,4.388e-06,1.3764e-05,1.6792e-05,6.44e-06,9.808e-06,1.2488e-05,1.831e-05,1.099e-05,1.1486e-05,1.0012e-05,6.584e-06,4.62e-06,3.34e-06,5.766e-06,4.036e-06,2.12e-06,8.718e-06,4.556e-06,5.976e-06,4.006e-06,4.298e-06,2.104e-05,1.2728e-05,2.04e-05,1.1838e-05,1.1054e-05,2.636e-05,1.6664e-05,1.4626e-05,1.8404e-05,1.01e-05
392,6.258e-06,6.17e-06,1.0254e-05,1.298e-06,1.2568e-05,1.1416e-05,2.006e-05,1.6036e-05,9.02e-07,7.692e-06,1.2012e-05,1.6562e-05,5.58e-06,1.2994e-05,1.3554e-05,1.6904e-05,1.2504e-05,1.0988e-05,1.0922e-05,1.1214e-05,4.276e-06,4.302e-06,5.95e-06,5.094e-06,1.2286e-06,7.002e-06,4.45e-06,5.944e-06,3.618e-06,3.704e-06,2.7e-05,1.2984e-05,2.346e-05,9.644e-06,1.6824e-05,2.284e-05,1.4926e-05,1.5328e-05,2.152e-05,1.3148e-05
394,8.402e-06,1.0236e-05,1.3436e-05,1.1522e-07,1.093e-05,1.3436e-05,1.5744e-05,8.29e-06,1.1502e-07,3.68e-06,1.2294e-05,1.4856e-05,6.17e-06,1.5702e-05,1.6976e-05,1.281e-05,1.1324e-05,1.2482e-05,7.578e-06,4.658e-06,3.512e-06,4.56e-06,5.142e-06,5.756e-06,1.0142e-06,6.082e-06,3.904e-06,4.93e-06,5.086e-06,3.176e-06,2.458e-05,1.8284e-05,2.136e-05,7.058e-06,1.228e-05,1.9168e-05,1.509e-05,1.5218e-05,1.4882e-05,1.309e-05
396,9.312e-06,1.0642e-05,9.622e-06,1.9476e-07,8.306e-06,1.1482e-05,1.6786e-05,1.4356e-05,3.904e-06,1.5288e-06,1.541e-05,1.7846e-05,6.64e-06,1.142e-05,1.474e-05,1.7092e-05,7.018e-06,1.4468e-05,1.0094e-05,8.358e-06,3.772e-06,4.154e-06,4.414e-06,5.232e-06,7.544e-07,6.24e-06,5.512e-06,5.196e-06,5.166e-06,2.648e-06,2.222e-05,1.4542e-05,1.8144e-05,6.446e-06,1.6048e-05,2.476e-05,1.9884e-05,1.4774e-05,1.7556e-05,8.628e-06
398,8.95e-06,9.59e-06,9.244e-06,3.11e-06,1.0768e-05,1.0622e-05,9.578e-06,1.2248e-05,5.456e-06,4.11e-06,1.4486e-05,1.5274e-05,7.966e-06,1.2252e-05,1.3606e-05,1.5276e-05,9.456e-06,1.061e-05,1.0292e-05,7.966e-06,3.614e-06,2.774e-06,3.482e-06,4.376e-06,2.306e-06,5.406e-06,4.458e-06,5.38e-06,4.024e-06,2.688e-06,2.084e-05,1.7998e-05,1.5434e-05,7.34e-06,1.6564e-05,1.9804e-05,1.32e-05,1.5452e-05,2.038e-05,1.1064e-05
400,1.172e-05,1.1978e-05,8.858e-06,2.658e-06,1.1532e-05,8.326e-06,1.1254e-05,1.4766e-05,4.068e-06,7.71e-06,1.342e-05,1.5342e-05,8.444e-06,1.1046e-05,1.2426e-05,1.4306e-05,1.1304e-05,9.354e-06,9.238e-06,7.788e-06,2.624e-06,2.736e-06,2.988e-06,5.332e-06,2.32e-06,5.094e-06,4.69e-06,5.672e-06,4.04e-06,2.19e-06,2.19e-05,1.534e-05,1.346e-05,9.918e-06,1.7138e-05,1.6704e-05,1.2258e-05,2.054e-05,2.406e-05,9.974e-06
402,1.208e-05,1.0994e-05,4.534e-06,3.698e-06,7.766e-06,6.682e-06,1.0506e-05,1.3008e-05,5.002e-06,6.328e-06,1.1872e-05,1.3354e-05,8.124e-06,1.2908e-05,1.251e-05,1.4498e-05,9.758e-06,4.292e-06,8.968e-06,6.294e-06,3.046e-06,3.422e-06,3.874e-06,4.324e-06,2.372e-06,4.728e-06,5.538e-06,4.576e-06,4.276e-06,1.941e-06,2.06e-05,1.2e-05,1.4246e-05,1.2054e-05,2.034e-05,1.5704e-05,1.7182e-05,1.7784e-05,1.7284e-05,1.1008e-05
404,1.1256e-05,9.518e-06,6.158e-06,5.492e-06,9.326e-06,7.534e-06,1.003e-05,9.53e-06,6.352e-06,8.724e-06,1.041e-05,1.2886e-05,7.612e-06,1.3636e-05,1.4742e-05,1.4134e-05,9.674e-06,6.446e-06,1.0618e-05,6.64e-06,3e-06,4.11e-06,3.534e-06,4.264e-06,3.268e-06,4.112e-06,6.6e-06,3.742e-06,4.396e-06,2.434e-06,1.8768e-05,1.6122e-05,1.4004e-05,1.1022e-05,1.9014e-05,1.7554e-05,1.884e-05,1.3478e-05,1.6804e-05,1.216e-05
406,1.1466e-05,1.1542e-05,5.58e-06,3.65e-06,1.1166e-05,1.027e-05,7.97e-06,5.566e-06,9.638e-06,8.296e-06,1.3194e-05,1.3046e-05,8.984e-06,1.3746e-05,1.4854e-05,1.2792e-05,9.856e-06,9.4e-06,1.186e-05,7.898e-06,2.814e-06,4.672e-06,3.872e-06,4.414e-06,2.046e-06,4.19e-06,5.856e-06,4.856e-06,3.518e-06,3.254e-06,2.288e-05,1.7036e-05,1.2036e-05,1.231e-05,1.5558e-05,1.4176e-05,1.6766e-05,1.321e-05,1.6418e-05,1.8286e-05
408,1.1538e-05,1.0214e-05,3.966e-06,6.068e-06,8.092e-06,9.006e-06,8.996e-06,1.0374e-05,1.0566e-05,9.124e-06,1.1384e-05,1.0814e-05,9.014e-06,1.1342e-05,1.328e-05,1.1908e-05,1.0916e-05,7e-06,1.2682e-05,7.084e-06,2.254e-06,4.088e-06,3.756e-06,3.092e-06,2.084e-06,4.898e-06,5.662e-06,4.692e-06,4.52e-06,3.358e-06,1.9712e-05,1.6816e-05,1.149e-05,1.1206e-05,2.074e-05,1.757e-05,1.5174e-05,1.315e-05,1.732e-05,1.689e-05
410,1.0762e-05,8.718e-06,3.188e-06,5.358e-06,8.438e-06,6.374e-06,6.516e-06,9.292e-06,1.2328e-05,8.78e-06,1.0286e-05,9.988e-06,8.124e-06,1.195e-05,1.3582e-05,9.98e-06,8.86e-06,8.85e-06,1.0112e-05,6.602e-06,2.634e-06,3.704e-06,2.418e-06,3.39e-06,2.244e-06,4.666e-06,5.5e-06,4.864e-06,5.084e-06,2.854e-06,1.8132e-05,2.122e-05,1.3406e-05,9.804e-06,2.496e-05,1.6228e-05,1.4202e-05,1.5646e-05,1.759e-05,1.4566e-05
412,1.331e-05,1.4496e-05,6.5e-06,1.056e-05,1.1548e-05,9.3e-06,1.0212e-05,1.8624e-05,1.2626e-05,1.0396e-05,1.305e-05,8.464e-06,1.112e-05,1.3012e-05,1.3058e-05,1.2248e-05,1.2586e-05,8.192e-06,8.796e-06,8.202e-06,3.606e-06,4.222e-06,3.148e-06,3.156e-06,2.598e-06,1.6874e-06,5.246e-06,3.452e-06,4.466e-06,2.52e-06,2.226e-05,1.9604e-05,1.8968e-05,2.068e-05,2.208e-05,2.138e-05,2.072e-05,1.6062e-05,2.27e-05,2.038e-05
414,1.9258e-05,1.7986e-05,1.1556e-05,1.7658e-05,1.8248e-05,1.7858e-05,1.397e-05,2.27e-05,1.914e-05,1.9818e-05,1.5598e-05,1.2656e-05,1.3334e-05,1.3116e-05,1.282e-05,1.2768e-05,1.0796e-05,8.664e-06,1.1998e-05,9.59e-06,2.984e-06,3.818e-06,4.046e-06,4.868e-06,2.906e-06,3.42e-06,5.382e-06,4.194e-06,4.472e-06,2.728e-06,3.04e-05,2.922e-05,2.392e-05,2.978e-05,3.546e-05,2.938e-05,2.948e-05,2.702e-05,3.13e-05,3.126e-05
416,4.388e-05,4.176e-05,3.33e-05,4.022e-05,3.984e-05,3.816e-05,3.524e-05,4.04e-05,3.764e-05,4.128e-05,1.7332e-05,1.795e-05,1.7842e-05,1.8492e-05,1.8454e-05,1.723e-05,1.6332e-05,1.3422e-05,1.8764e-05,1.4536e-05,2.602e-06,4.274e-06,3.904e-06,3.902e-06,4.092e-06,3.304e-06,5.348e-06,3.786e-06,4.176e-06,3.788e-06,6.148e-05,6.052e-05,5.698e-05,6.438e-05,6.62e-05,5.878e-05,5.726e-05,5.656e-05,5.952e-05,5.998e-05
418,9.392e-05,9.23e-05,8.488e-05,9.178e-05,8.894e-05,8.376e-05,8.322e-05,8.39e-05,8.694e-05,8.618e-05,3.016e-05,2.756e-05,2.912e-05,3.044e-05,3.03e-05,2.746e-05,2.786e-05,2.476e-05,2.826e-05,2.606e-05,4.208e-06,5.028e-06,4.442e-06,4.822e-06,4.74e-06,4.324e-06,5.612e-06,4.096e-06,5.434e-06,4.106e-06,0.00012884,0.00012734,0.00012338,0.00012938,0.00013104,0.00012004,0.00011952,0.00011316,0.00012022,0.00012344
420,0.00017208,0.00016988,0.00016322,0.00016988,0.0001666,0.00015846,0.0001573,0.00016104,0.00016324,0.00016048,4.8e-05,4.634e-05,4.834e-05,4.964e-05,5.084e-05,4.518e-05,4.486e-05,4.234e-05,4.538e-05,4.422e-05,5.928e-06,5.358e-06,6.022e-06,5.082e-06,6.1e-06,5.41e-06,6.894e-06,5.164e-06,6.356e-06,4.998e-06,0.0002364,0.0002368,0.0002294,0.0002378,0.0002386,0.0002214,0.0002248,0.0002164,0.0002236,0.0002286
422,0.000265,0.0002614,0.0002552,0.0002642,0.0002606,0.0002502,0.0002478,0.000256,0.0002564,0.000255,6.93e-05,6.9e-05,7.184e-05,7.17e-05,7.148e-05,6.782e-05,6.704e-05,6.446e-05,6.774e-05,6.664e-05,7.232e-06,7.304e-06,7.738e-06,5.99e-06,8.04e-06,6.88e-06,7.884e-06,7.172e-06,7.386e-06,6.672e-06,0.0003838,0.0003846,0.000378,0.0003854,0.0003884,0.0003644,0.0003664,0.0003626,0.0003674,0.0003704
424,0.0003582,0.0003542,0.0003468,0.0003588,0.000353,0.0003436,0.000343,0.0003488,0.0003478,0.0003468,9.224e-05,9.076e-05,9.302e-05,9.33e-05,9.218e-05,8.708e-05,8.914e-05,8.536e-05,9.016e-05,8.978e-05,8.686e-06,9.946e-06,8.9e-06,8.362e-06,9.462e-06,7.604e-06,1.0592e-05,8.536e-06,9.054e-06,8.67e-06,0.0005748,0.0005708,0.0005686,0.000576,0.0005738,0.0005456,0.0005502,0.0005444,0.000548,0.0005524
426,0.000444,0.000444,0.0004384,0.0004456,0.000439,0.0004338,0.0004268,0.0004348,0.000436,0.0004338,0.00011456,0.00011186,0.00011556,0.00011726,0.00011514,0.00011184,0.00011024,0.00010772,0.00011188,0.00011198,1.1464e-05,1.2244e-05,1.202e-05,1.1038e-05,1.1974e-05,1.0568e-05,1.1616e-05,1.0798e-05,1.1616e-05,1.1922e-05,0.000809,0.0008108,0.000805,0.0008136,0.0008082,0.0007838,0.0007778,0.0007772,0.0007784,0.0007814
428,0.0005202,0.0005196,0.0005136,0.0005256,0.0005178,0.0005106,0.000507,0.000514,0.000513,0.0005146,0.00013366,0.0001338,0.0001358,0.00013518,0.00013468,0.00013106,0.00013272,0.00012914,0.0001324,0.0001313,1.5102e-05,1.625e-05,1.5486e-05,1.482e-05,1.588e-05,1.376e-05,1.5824e-05,1.4476e-05,1.505e-05,1.5428e-05,0.0010694,0.0010648,0.0010678,0.001071,0.001069,0.00104,0.0010354,0.0010372,0.0010376,0.0010424
430,0.0005764,0.0005756,0.0005696,0.0005774,0.00057,0.0005652,0.0005626,0.0005696,0.0005714,0.0005694,0.00014836,0.00014748,0.00014958,0.00015042,0.00014862,0.00014582,0.00014772,0.0001437,0.00014808,0.00014852,1.8366e-05,1.8584e-05,1.755e-05,1.7982e-05,1.9132e-05,1.71e-05,1.817e-05,1.7334e-05,1.8698e-05,1.786e-05,0.0012852,0.0012832,0.0012804,0.001288,0.0012846,0.00126,0.001258,0.0012552,0.0012576,0.0012638
432,0.0005834,0.0005832,0.000577,0.0005846,0.0005804,0.0005818,0.0005772,0.0005836,0.0005842,0.0005846,0.00015114,0.0001514,0.0001524,0.00015408,0.00015228,0.00015008,0.0001518,0.0001494,0.00015418,0.00015304,2.146e-05,2.176e-05,2.108e-05,2.124e-05,2.24e-05,2.098e-05,2.222e-05,2.112e-05,2.184e-05,2.094e-05,0.0014102,0.001408,0.0014082,0.0014124,0.0014082,0.0013946,0.0013916,0.0013884,0.0013918,0.0013972
434,0.000518,0.0005188,0.0005154,0.000523,0.0005156,0.000527,0.000522,0.0005268,0.0005282,0.0005292,0.0001393,0.00013992,0.0001398,0.00014158,0.0001412,0.00013992,0.0001416,0.0001394,0.00014348,0.00014104,2.464e-05,2.482e-05,2.41e-05,2.4e-05,2.554e-05,2.364e-05,2.462e-05,2.37e-05,2.408e-05,2.426e-05,0.0014146,0.0014152,0.001414,0.0014182,0.001414,0.0014098,0.0014064,0.0014078,0.0014072,0.0014112
436,0.000385,0.0003856,0.0003836,0.0003886,0.0003822,0.0003996,0.000394,0.0003998,0.0004004,0.000401,0.00010994,0.00011098,0.0001119,0.00011354,0.00011042,0.0001129,0.00011338,0.00011236,0.00011532,0.00011472,2.686e-05,2.686e-05,2.65e-05,2.628e-05,2.78e-05,2.59e-05,2.626e-05,2.588e-05,2.642e-05,2.646e-05,0.0013118,0.0013098,0.0013116,0.0013158,0.0013094,0.0013152,0.0013124,0.001314,0.001313,0.0013154
438,0.0002318,0.0002324,0.0002312,0.0002366,0.0002282,0.0002468,0.000241,0.000247,0.0002472,0.0002452,7.706e-05,7.748e-05,7.92e-05,8.146e-05,7.88e-05,8.112e-05,7.99e-05,7.874e-05,8.166e-05,8.266e-05,2.904e-05,2.968e-05,2.902e-05,2.894e-05,2.95e-05,2.758e-05,2.766e-05,2.814e-05,2.864e-05,2.9e-05,0.0011382,0.0011346,0.0011358,0.0011378,0.0011342,0.001148,0.001148,0.0011458,0.001147,0.001147
440,0.00011588,0.00011644,0.00011656,0.00012074,0.0001135,0.0001255,0.00012038,0.00012664,0.00012562,0.00012364,5.344e-05,5.428e-05,5.558e-05,5.862e-05,5.58e-05,5.688e-05,5.586e-05,5.432e-05,5.768e-05,5.952e-05,3.172e-05,3.194e-05,3.076e-05,3.116e-05,3.138e-05,3.06e-05,3.004e-05,3.09e-05,3.116e-05,3.098e-05,0.0009026,0.000904,0.000904,0.0009048,0.000901,0.0009226,0.0009206,0.000921,0.0009198,0.0009206
442,6.34e-05,6.366e-05,6.562e-05,6.836e-05,6.294e-05,6.92e-05,6.314e-05,6.746e-05,6.974e-05,6.78e-05,4.55e-05,4.628e-05,4.864e-05,4.952e-05,4.654e-05,4.61e-05,4.698e-05,4.692e-05,4.832e-05,4.756e-05,3.328e-05,3.496e-05,3.32e-05,3.252e-05,3.452e-05,3.268e-05,3.256e-05,3.34e-05,3.326e-05,3.276e-05,0.0006192,0.000619,0.000618,0.0006208,0.0006156,0.0006362,0.0006406,0.0006398,0.0006394,0.000639
444,5.384e-05,5.42e-05,5.458e-05,5.76e-05,5.268e-05,5.868e-05,5.28e-05,5.854e-05,5.87e-05,5.648e-05,4.556e-05,4.602e-05,4.856e-05,4.86e-05,4.674e-05,4.618e-05,4.678e-05,4.726e-05,4.872e-05,4.704e-05,3.632e-05,3.712e-05,3.66e-05,3.526e-05,3.654e-05,3.566e-05,3.508e-05,3.608e-05,3.612e-05,3.618e-05,0.0003708,0.0003754,0.0003742,0.0003764,0.0003732,0.000392,0.0003934,0.000392,0.0003888,0.0003916
446,5.534e-05,5.606e-05,5.544e-05,5.838e-05,5.45e-05,5.848e-05,5.43e-05,5.588e-05,5.574e-05,5.632e-05,4.84e-05,4.854e-05,5.152e-05,5.274e-05,4.908e-05,5e-05,4.98e-05,4.992e-05,5.032e-05,5.204e-05,3.976e-05,3.972e-05,3.922e-05,3.856e-05,3.94e-05,3.888e-05,3.832e-05,3.862e-05,3.912e-05,3.938e-05,0.0002044,0.000206,0.0002066,0.000208,0.0002044,0.0002158,0.0002178,0.0002148,0.000213,0.0002156
448,5.972e-05,5.858e-05,6.13e-05,6.038e-05,5.812e-05,6.144e-05,5.766e-05,6.128e-05,5.958e-05,6.02e-05,5.342e-05,5.352e-05,5.478e-05,5.646e-05,5.452e-05,5.55e-05,5.442e-05,5.4e-05,5.446e-05,5.704e-05,4.394e-05,4.374e-05,4.3e-05,4.264e-05,4.36e-05,4.288e-05,4.194e-05,4.276e-05,4.306e-05,4.302e-05,0.00013002,0.0001319,0.0001297,0.00013276,0.00012756,0.00013374,0.00013476,0.0001325,0.00013114,0.00013388
450,6.51e-05,6.388e-05,6.718e-05,6.63e-05,6.44e-05,6.652e-05,6.318e-05,6.464e-05,6.556e-05,6.374e-05,5.856e-05,5.924e-05,6.004e-05,6.09e-05,5.978e-05,6.056e-05,6.01e-05,6.09e-05,6.07e-05,6.076e-05,4.876e-05,4.922e-05,4.85e-05,4.78e-05,4.816e-05,4.768e-05,4.664e-05,4.77e-05,4.786e-05,4.776e-05,0.00010998,0.00011398,0.00011214,0.00011716,0.00011084,0.00011372,0.00011246,0.00011264,0.00011014,0.00011086
452,6.836e-05,6.646e-05,7.152e-05,6.998e-05,6.742e-05,7.15e-05,6.746e-05,6.88e-05,6.858e-05,6.658e-05,6.136e-05,6.3e-05,6.324e-05,6.626e-05,6.318e-05,6.388e-05,6.45e-05,6.508e-05,6.512e-05,6.528e-05,5.234e-05,5.324e-05,5.27e-05,5.206e-05,5.17e-05,5.234e-05,5.09e-05,5.304e-05,5.206e-05,5.188e-05,0.00010972,0.00011424,0.00011142,0.00011484,0.0001105,0.00011082,0.0001108,0.00010986,0.00010984,0.000112
454,6.596e-05,6.574e-05,7.26e-05,6.826e-05,7.106e-05,7.156e-05,6.866e-05,6.948e-05,6.944e-05,6.808e-05,6.348e-05,6.536e-05,6.534e-05,6.83e-05,6.524e-05,6.678e-05,6.476e-05,6.58e-05,6.592e-05,6.63e-05,5.536e-05,5.512e-05,5.472e-05,5.474e-05,5.422e-05,5.498e-05,5.36e-05,5.5e-05,5.452e-05,5.42e-05,0.000109,0.00011124,0.0001105,0.0001127,0.00010858,0.00011156,0.00011328,0.00011192,0.00010978,0.00011218
456,6.8e-05,6.712e-05,7.402e-05,6.95e-05,7.11e-05,7.482e-05,6.882e-05,7.192e-05,6.92e-05,6.942e-05,6.736e-05,6.836e-05,6.752e-05,6.988e-05,6.916e-05,6.85e-05,6.778e-05,6.914e-05,6.92e-05,7.068e-05,5.768e-05,5.844e-05,5.794e-05,5.772e-05,5.752e-05,5.786e-05,5.668e-05,5.824e-05,5.772e-05,5.688e-05,0.00010984,0.00011326,0.0001132,0.0001169,0.0001111,0.00011288,0.00011114,0.00011094,0.00011248,0.00011398
458,7.412e-05,6.94e-05,7.948e-05,7.476e-05,7.474e-05,7.566e-05,7.382e-05,7.128e-05,7.376e-05,7.312e-05,7.21e-05,7.286e-05,7.18e-05,7.544e-05,7.312e-05,7.57e-05,7.324e-05,7.396e-05,7.324e-05,7.49e-05,6.214e-05,6.364e-05,6.158e-05,6.2e-05,6.206e-05,6.22e-05,6.112e-05,6.214e-05,6.212e-05,6.162e-05,0.0001138,0.00011722,0.0001173,0.00011638,0.00011324,0.00011646,0.00011416,0.00011304,0.00011442,0.00011538
460,7.578e-05,7.544e-05,8.354e-05,7.772e-05,7.856e-05,8.182e-05,7.72e-05,7.756e-05,7.792e-05,7.76e-05,7.73e-05,7.906e-05,7.65e-05,8.064e-05,7.82e-05,8.044e-05,7.838e-05,7.814e-05,7.762e-05,7.908e-05,6.666e-05,6.77e-05,6.688e-05,6.602e-05,6.716e-05,6.724e-05,6.594e-05,6.714e-05,6.66e-05,6.612e-05,0.00011806,0.00012078,0.00012088,0.00012008,0.00011856,0.00012086,0.00011936,0.00011766,0.0001196,0.00011824
462,7.89e-05,8.046e-05,8.672e-05,8.106e-05,8.304e-05,8.48e-05,8.298e-05,8.23e-05,8.24e-05,8.188e-05,8.264e-05,8.472e-05,8.058e-05,8.384e-05,8.34e-05,8.518e-05,8.38e-05,8.314e-05,8.334e-05,8.22e-05,7.156e-05,7.188e-05,7.178e-05,7.072e-05,7.08e-05,7.19e-05,7.046e-05,7.188e-05,7.052e-05,7.06e-05,0.00012384,0.00012526,0.00012652,0.00012472,0.00012242,0.000126,0.00012434,0.00012258,0.00012432,0.00012208
464,8.44e-05,8.552e-05,9.032e-05,8.396e-05,8.902e-05,8.912e-05,8.88e-05,8.656e-05,8.446e-05,8.608e-05,8.972e-05,8.93e-05,8.682e-05,9.034e-05,8.946e-05,9.134e-05,8.858e-05,8.806e-05,8.916e-05,8.762e-05,7.596e-05,7.712e-05,7.68e-05,7.622e-05,7.574e-05,7.698e-05,7.6e-05,7.664e-05,7.66e-05,7.568e-05,0.00012676,0.00012826,0.00012946,0.00012832,0.0001243,0.000128,0.00012838,0.00012902,0.00012812,0.0001284
466,8.874e-05,8.598e-05,9.452e-05,8.938e-05,9.39e-05,9.494e-05,9.18e-05,9.152e-05,8.846e-05,9.156e-05,9.614e-05,9.586e-05,9.444e-05,9.68e-05,9.412e-05,9.8e-05,9.438e-05,9.406e-05,9.368e-05,9.428e-05,8.212e-05,8.254e-05,8.258e-05,8.194e-05,8.104e-05,8.318e-05,8.166e-05,8.198e-05,8.222e-05,8.14e-05,0.0001306,0.0001334,0.00013304,0.00013364,0.00012894,0.00013416,0.00013392,0.00013434,0.00013436,0.00013208
468,9.45e-05,9.424e-05,9.884e-05,9.426e-05,9.994e-05,9.946e-05,9.708e-05,9.794e-05,9.722e-05,9.744e-05,0.00010214,0.00010246,9.954e-05,0.0001038,0.0001029,0.0001055,0.00010394,0.0001025,0.00010296,0.00010418,8.9e-05,8.948e-05,8.916e-05,8.962e-05,8.89e-05,9.09e-05,8.886e-05,9.074e-05,8.88e-05,8.906e-05,0.0001423,0.00014186,0.00014602,0.00014042,0.00013952,0.00014076,0.00014048,0.00014072,0.00014596,0.00013818
470,9.724e-05,9.704e-05,0.00010232,9.66e-05,0.00010336,9.992e-05,9.972e-05,0.00010092,9.884e-05,0.0001,0.00010686,0.0001092,0.00010464,0.00010854,0.0001079,0.00011028,0.00010884,0.0001086,0.00010762,0.00010818,9.338e-05,9.41e-05,9.538e-05,9.402e-05,9.368e-05,9.484e-05,9.326e-05,9.426e-05,9.398e-05,9.292e-05,0.00014318,0.00014352,0.00014882,0.0001441,0.00013982,0.00014728,0.00014558,0.00014132,0.00014668,0.00014204
472,9.808e-05,9.88e-05,0.00010384,9.744e-05,0.00010378,0.00010418,0.00010068,9.8e-05,9.886e-05,9.926e-05,0.00011074,0.00011098,0.0001076,0.0001115,0.00010888,0.0001121,0.00011066,0.00010964,0.00011046,0.00010928,9.648e-05,9.654e-05,9.702e-05,9.696e-05,9.582e-05,9.73e-05,9.594e-05,9.67e-05,9.572e-05,9.456e-05,0.00014616,0.0001447,0.0001473,0.00014254,0.00013994,0.00014554,0.00014712,0.00014132,0.00014712,0.0001415
474,9.81e-05,9.952e-05,0.0001033,9.68e-05,0.00010362,0.00010298,0.00010216,9.706e-05,9.75e-05,0.00010026,0.00011208,0.00011178,0.00010714,0.00011156,0.00011054,0.00011406,0.00011214,0.00011118,0.00011102,0.00011058,9.794e-05,9.8e-05,9.856e-05,9.874e-05,9.788e-05,9.85e-05,9.776e-05,9.764e-05,9.722e-05,9.708e-05,0.000142,0.00014356,0.00014652,0.0001417,0.00014024,0.00014506,0.00014412,0.00014118,0.00014552,0.00014128
476,9.37e-05,9.668e-05,0.00010062,9.504e-05,0.0001002,9.83e-05,9.884e-05,9.66e-05,9.538e-05,9.878e-05,0.00011056,0.00010986,0.00010542,0.00011044,0.00010956,0.00011314,0.00011016,0.00010944,0.00010962,0.00011042,9.682e-05,9.748e-05,9.75e-05,9.8e-05,9.686e-05,9.738e-05,9.742e-05,9.728e-05,9.734e-05,9.596e-05,0.00013692,0.00013736,0.00014118,0.00013508,0.00013436,0.00014002,0.0001386,0.00013624,0.00013884,0.00013666
478,9.422e-05,9.634e-05,9.712e-05,9.408e-05,9.86e-05,9.618e-05,9.598e-05,9.336e-05,9.466e-05,9.438e-05,0.00011148,0.00011116,0.00010694,0.00011078,0.00010912,0.0001138,0.0001102,0.00010998,0.00010968,0.00010992,9.702e-05,9.748e-05,9.828e-05,9.81e-05,9.756e-05,9.898e-05,9.806e-05,9.83e-05,9.818e-05,9.638e-05,0.00013528,0.00013176,0.0001388,0.00013304,0.00013218,0.00013436,0.00013386,0.00013438,0.00013818,0.0001338
480,9.606e-05,9.884e-05,9.924e-05,9.716e-05,0.00010166,0.0001006,9.916e-05,9.486e-05,9.972e-05,0.00010156,0.00011492,0.00011372,0.00011096,0.00011406,0.00011422,0.0001166,0.00011532,0.00011406,0.0001153,0.00011542,0.00010234,0.00010184,0.00010318,0.00010338,0.00010222,0.0001032,0.00010398,0.00010306,0.00010358,0.00010228,0.00013928,0.000134,0.00014118,0.00013568,0.00013556,0.00014134,0.00013606,0.00013632,0.00013962,0.00013774
482,0.00010286,0.00010444,0.00010456,0.0001003,0.000106,0.00010318,0.00010494,9.994e-05,0.0001029,0.00010506,0.00012398,0.00012334,0.0001193,0.00012382,0.00012198,0.00012684,0.00012446,0.00012304,0.00012244,0.0001234,0.0001109,0.0001112,0.0001114,0.00011172,0.00011078,0.00011098,0.00011216,0.00011164,0.0001111,0.00010972,0.00014198,0.00014076,0.00014706,0.00014272,0.00013828,0.00014578,0.00014288,0.00014346,0.00014956,0.0001441
484,0.00010532,0.0001046,0.00010544,0.00010392,0.0001082,0.00010586,0.00010802,0.00010192,0.0001067,0.0001086,0.00013008,0.00012932,0.00012512,0.00012906,0.00012772,0.00013248,0.00012892,0.00012868,0.00012928,0.00012944,0.00011594,0.00011546,0.00011666,0.00011788,0.00011614,0.00011652,0.00011718,0.00011666,0.00011648,0.00011558,0.00014608,0.00014302,0.00014804,0.0001434,0.0001459,0.00015094,0.00014324,0.00014368,0.00015016,0.00014518
486,0.00010324,0.00010614,0.0001049,0.000103,0.00010786,0.0001054,0.00010794,0.00010364,0.0001054,0.000108,0.0001367,0.00013584,0.00013236,0.00013524,0.00013464,0.00013912,0.00013544,0.00013602,0.00013428,0.00013558,0.00012348,0.000123,0.00012322,0.00012448,0.00012342,0.00012248,0.00012388,0.00012242,0.00012316,0.00012232,0.00014636,0.00014192,0.00015092,0.00014388,0.00014774,0.00014956,0.00014614,0.0001458,0.00015074,0.00014642
488,0.00010626,0.00010804,0.00010564,0.00010466,0.00011014,0.00010538,0.00010888,0.00010604,0.00010706,0.00010988,0.00016908,0.0001653,0.00016256,0.0001659,0.00016506,0.00016544,0.00016258,0.00016278,0.00016082,0.0001632,0.00015048,0.00015066,0.00015138,0.00015156,0.00015106,0.0001462,0.00014806,0.0001469,0.0001472,0.0001465,0.0001551,0.00015302,0.00015784,0.00015218,0.00015484,0.0001562,0.00015482,0.00015206,0.0001586,0.00015594
490,0.00011102,0.000113,0.00011062,0.00010986,0.00011326,0.00010854,0.00011308,0.000108,0.0001119,0.00011534,0.000268,0.000263,0.000259,0.0002646,0.000264,0.0002538,0.0002542,0.000254,0.0002526,0.000252,0.0002354,0.000235,0.0002356,0.0002352,0.0002352,0.0002236,0.0002254,0.000224,0.0002246,0.000225,0.0001795,0.00017812,0.00018078,0.0001757,0.00018092,0.00018,0.00017588,0.00017366,0.00018092,0.00017796
492,0.00011774,0.00011864,0.00011842,0.0001179,0.00012136,0.00011546,0.00011796,0.00011592,0.00011834,0.00012226,0.0004826,0.0004778,0.0004722,0.0004774,0.0004784,0.0004546,0.0004548,0.000453,0.0004542,0.0004532,0.0004108,0.0004096,0.0004112,0.000411,0.0004112,0.0003878,0.0003902,0.000389,0.0003892,0.00039,0.000226,0.0002222,0.0002282,0.0002214,0.0002266,0.0002262,0.0002198,0.0002172,0.0002254,0.0002224
494,0.00012452,0.00012604,0.00012412,0.00012158,0.00012544,0.00012224,0.00012552,0.00012386,0.0001237,0.00012724,0.0008772,0.0008702,0.000864,0.000869,0.000869,0.000828,0.0008274,0.0008284,0.0008256,0.000825,0.0006882,0.0006854,0.0006864,0.0006866,0.000686,0.0006534,0.0006558,0.0006548,0.000655,0.0006558,0.0002846,0.0002862,0.0002906,0.0002832,0.0002886,0.0002826,0.0002796,0.0002824,0.000286,0.0002826
496,0.00012912,0.000131,0.0001272,0.0001283,0.00012992,0.00012692,0.00013052,0.00012994,0.00012948,0.00013128,0.0014274,0.0014194,0.001415,0.0014182,0.0014172,0.0013532,0.0013558,0.0013544,0.001352,0.001352,0.0009646,0.0009632,0.0009634,0.0009634,0.0009634,0.0009284,0.0009298,0.000928,0.0009292,0.0009288,0.000338,0.0003366,0.0003388,0.0003342,0.0003384,0.0003366,0.0003324,0.0003326,0.0003354,0.0003342
498,0.00013798,0.00014056,0.00013596,0.00013726,0.00013872,0.00013514,0.00014004,0.00013978,0.00013516,0.00014034,0.002166,0.002156,0.00215,0.002154,0.002152,0.002068,0.002068,0.002066,0.002064,0.002062,0.0012198,0.0012184,0.0012182,0.0012182,0.0012188,0.0011836,0.0011848,0.001183,0.001185,0.0011848,0.000372,0.0003706,0.0003732,0.00037,0.0003728,0.0003704,0.0003704,0.0003692,0.0003716,0.0003704
500,0.00015262,0.00015408,0.00015078,0.00015144,0.000152,0.00014806,0.00015266,0.00015088,0.00015116,0.00015392,0.003026,0.003018,0.00301,0.003012,0.003012,0.002914,0.002912,0.002912,0.00291,0.002908,0.001447,0.0014458,0.0014464,0.0014462,0.001446,0.0014138,0.0014152,0.0014132,0.0014162,0.001415,0.0003936,0.0003908,0.0003928,0.0003902,0.000396,0.0003942,0.000394,0.0003948,0.0003948,0.0003946
502,0.00016852,0.00017148,0.00016604,0.00016916,0.00016986,0.00016452,0.00016894,0.00016784,0.0001694,0.0001712,0.003842,0.003834,0.003828,0.003826,0.00383,0.003736,0.003734,0.003738,0.00373,0.003732,0.0016294,0.0016286,0.0016294,0.001629,0.0016286,0.0016018,0.0016034,0.0016018,0.0016058,0.0016048,0.0004058,0.0004018,0.0004084,0.0004014,0.0004078,0.0004076,0.0004076,0.0004078,0.0004056,0.0004076
504,0.00018204,0.00018344,0.00017798,0.00018244,0.00018236,0.0001777,0.00018212,0.00018432,0.0001818,0.000183,0.004452,0.004444,0.00444,0.004436,0.00444,0.004372,0.004372,0.004374,0.004368,0.004368,0.0017458,0.0017458,0.0017454,0.0017452,0.001745,0.001728,0.0017298,0.0017268,0.0017308,0.0017306,0.0004064,0.0004046,0.000409,0.0004046,0.0004078,0.0004078,0.0004094,0.00041,0.0004108,0.000412
506,0.0001891,0.00018976,0.00018644,0.00018818,0.0001871,0.000187,0.0001894,0.00019034,0.00018942,0.00019064,0.004754,0.004748,0.004744,0.00474,0.004744,0.004718,0.004718,0.00472,0.004716,0.004718,0.001747,0.001748,0.0017474,0.0017482,0.0017478,0.0017498,0.0017494,0.0017476,0.0017512,0.0017504,0.000386,0.000382,0.0003874,0.0003822,0.0003884,0.0003896,0.0003932,0.000392,0.0003918,0.0003924
508,0.00019408,0.00019376,0.00018928,0.00019216,0.00019196,0.00018944,0.00019034,0.00019472,0.00019486,0.00019402,0.004706,0.004704,0.004702,0.004698,0.004704,0.004716,0.004718,0.004718,0.004714,0.004714,0.0015814,0.0015838,0.0015842,0.0015848,0.001583,0.001607,0.0016054,0.0016048,0.0016082,0.0016072,0.0003354,0.0003356,0.0003378,0.0003324,0.0003412,0.000345,0.0003494,0.0003476,0.000345,0.0003484
510,0.00019336,0.00019374,0.00019058,0.00019454,0.00019288,0.00019024,0.00019458,0.00019988,0.00019718,0.00019622,0.004402,0.004398,0.0044,0.004396,0.0044,0.004446,0.004446,0.004444,0.004442,0.004442,0.0012948,0.001298,0.0012982,0.0012988,0.0012978,0.001335,0.001332,0.0013312,0.0013346,0.001334,0.0002764,0.0002746,0.0002742,0.0002742,0.0002788,0.0002854,0.0002898,0.000286,0.0002844,0.000289
512,0.00019032,0.00019046,0.00018754,0.00019172,0.00018956,0.0001911,0.00019244,0.0001949,0.00019492,0.00019374,0.003836,0.003834,0.00384,0.003836,0.00384,0.003912,0.003912,0.003914,0.00391,0.003914,0.0009702,0.0009736,0.000974,0.000974,0.0009736,0.001011,0.0010088,0.0010084,0.0010112,0.0010098,0.0002334,0.0002306,0.0002312,0.0002298,0.0002324,0.000238,0.000239,0.0002388,0.0002352,0.0002418
514,0.00018234,0.0001823,0.0001802,0.00018332,0.00018036,0.00018272,0.00018468,0.00018602,0.00018684,0.0001828,0.002962,0.002962,0.00297,0.002968,0.002972,0.003072,0.003068,0.003072,0.00307,0.003072,0.0006852,0.0006882,0.0006888,0.000689,0.0006886,0.0007194,0.0007172,0.0007172,0.0007194,0.0007184,0.0002118,0.0002124,0.0002132,0.0002096,0.000214,0.0002162,0.0002168,0.0002176,0.0002144,0.000221
516,0.00016934,0.00016926,0.00016556,0.00017244,0.00016714,0.00016934,0.00017124,0.0001747,0.00017354,0.00017188,0.0018938,0.001895,0.0019028,0.0019006,0.001905,0.002008,0.002002,0.002008,0.002006,0.00201,0.0004592,0.0004608,0.0004606,0.000461,0.000461,0.0004846,0.0004828,0.0004828,0.0004842,0.0004842,0.0002104,0.0002112,0.0002076,0.000205,0.0002118,0.0002106,0.0002128,0.0002126,0.0002094,0.0002166
518,0.00015886,0.0001596,0.00015628,0.00016052,0.00015752,0.00016092,0.00016018,0.00016306,0.00016216,0.0001581,0.0009232,0.0009254,0.000933,0.0009296,0.0009336,0.0010016,0.0009974,0.0010002,0.0010016,0.0010036,0.0002894,0.0002906,0.0002908,0.00029,0.0002906,0.0003054,0.0003034,0.0003032,0.0003052,0.0003048,0.0002098,0.0002144,0.0002094,0.0002082,0.0002136,0.0002106,0.0002166,0.0002148,0.0002118,0.0002192
520,0.00015578,0.00015686,0.00015364,0.00015692,0.00015388,0.00015784,0.00015796,0.00015888,0.00015914,0.0001555,0.000446,0.0004464,0.0004504,0.000449,0.0004512,0.000478,0.0004772,0.0004778,0.000479,0.0004802,0.000211,0.0002122,0.0002116,0.000212,0.0002122,0.0002186,0.0002178,0.0002176,0.0002186,0.0002192,0.0002156,0.0002168,0.0002148,0.0002144,0.00022,0.0002156,0.0002188,0.000221,0.000217,0.0002236
522,0.00015792,0.00015784,0.00015478,0.0001583,0.00015594,0.00015878,0.00015776,0.0001625,0.00015978,0.00015568,0.0003096,0.0003086,0.0003116,0.0003104,0.0003112,0.0003186,0.0003178,0.000319,0.00032,0.000322,0.0001881,0.0001889,0.00018898,0.00018876,0.00018914,0.00019264,0.0001921,0.0001917,0.00019202,0.00019304,0.0002188,0.000222,0.0002192,0.0002184,0.0002224,0.0002206,0.0002258,0.0002234,0.0002212,0.000228
524,0.00015994,0.00016074,0.0001579,0.00016178,0.00015848,0.00016206,0.000162,0.00016378,0.00016204,0.00015866,0.0002804,0.0002792,0.0002822,0.0002804,0.0002806,0.0002826,0.0002824,0.0002836,0.0002846,0.000286,0.00018298,0.00018368,0.00018328,0.00018318,0.00018336,0.00018604,0.00018502,0.0001848,0.00018518,0.0001862,0.0002226,0.0002264,0.0002228,0.000225,0.0002284,0.0002256,0.0002312,0.0002288,0.0002258,0.0002338
526,0.0001633,0.00016376,0.00016284,0.0001652,0.00016168,0.000166,0.00016504,0.00016562,0.00016688,0.00016334,0.0002742,0.0002732,0.0002758,0.0002744,0.000275,0.0002764,0.0002754,0.0002772,0.0002778,0.0002788,0.00018156,0.00018186,0.00018118,0.00018176,0.00018178,0.0001843,0.00018348,0.00018274,0.00018334,0.00018404,0.0002296,0.0002316,0.0002282,0.0002332,0.0002332,0.0002308,0.0002368,0.000232,0.0002314,0.0002382
528,0.00017058,0.0001672,0.00016804,0.00017094,0.00016726,0.00016996,0.00016852,0.00017018,0.00016968,0.00016646,0.00027,0.00027,0.0002726,0.0002704,0.0002708,0.0002732,0.0002728,0.0002724,0.000274,0.0002752,0.00018024,0.00017996,0.00017992,0.00017944,0.00018044,0.00018284,0.0001816,0.00018116,0.00018128,0.00018176,0.0002364,0.000237,0.0002356,0.0002398,0.0002398,0.0002372,0.000241,0.0002386,0.0002362,0.0002432
530,0.00017424,0.0001719,0.0001712,0.00017316,0.00016992,0.000175,0.00017286,0.00017412,0.00017368,0.00016956,0.0002638,0.0002644,0.0002676,0.0002652,0.0002652,0.0002668,0.0002658,0.0002662,0.000268,0.0002688,0.00017864,0.00017916,0.00017886,0.00017906,0.00017926,0.00018092,0.0001798,0.00018022,0.00018034,0.00018056,0.0002448,0.0002452,0.0002418,0.000244,0.0002472,0.0002416,0.0002472,0.0002474,0.0002438,0.0002494
532,0.00017672,0.00017506,0.00017614,0.00017604,0.0001743,0.00017796,0.0001768,0.00017876,0.0001778,0.00017476,0.000258,0.0002594,0.0002598,0.0002584,0.0002594,0.000259,0.000259,0.0002596,0.0002612,0.0002622,0.00017832,0.00017844,0.00017876,0.0001786,0.00017886,0.00018018,0.00017936,0.00017868,0.00018008,0.00018002,0.0002516,0.0002516,0.0002508,0.000253,0.0002528,0.0002496,0.0002542,0.0002536,0.0002532,0.0002548
534,0.0001812,0.00017864,0.00018104,0.00018022,0.00017836,0.00018266,0.00017974,0.00018112,0.00018184,0.00017832,0.000253,0.0002534,0.0002546,0.0002538,0.0002538,0.0002546,0.0002538,0.0002536,0.0002558,0.0002562,0.00017842,0.00017858,0.00017812,0.0001782,0.00017874,0.0001797,0.0001791,0.00017862,0.00017934,0.00017924,0.0002582,0.0002594,0.0002588,0.0002592,0.0002576,0.000255,0.0002596,0.0002592,0.0002586,0.0002614
536,0.0001851,0.0001832,0.00018584,0.00018512,0.00018288,0.00018662,0.00018456,0.0001841,0.0001871,0.00018164,0.0002496,0.0002504,0.0002522,0.0002502,0.0002506,0.0002514,0.000252,0.0002506,0.000253,0.0002538,0.00017888,0.000179,0.0001785,0.00017844,0.00017906,0.00017998,0.00017976,0.0001794,0.00017978,0.00017978,0.0002658,0.0002644,0.0002652,0.0002664,0.0002642,0.000263,0.0002678,0.000268,0.0002652,0.0002676
538,0.0001902,0.00018854,0.00019,0.0001894,0.00018722,0.00019082,0.00018916,0.00018952,0.00019182,0.00018678,0.0002492,0.0002506,0.0002504,0.000249,0.0002504,0.0002508,0.000251,0.00025,0.000252,0.0002516,0.00017978,0.00017978,0.00017922,0.00017944,0.00018034,0.00018084,0.00018076,0.00018052,0.00018082,0.00018048,0.0002748,0.0002736,0.000274,0.0002774,0.0002706,0.0002702,0.0002752,0.0002746,0.0002738,0.0002756
540,0.00019454,0.00019432,0.0001963,0.00019446,0.00019268,0.00019474,0.00019298,0.00019426,0.00019584,0.00019152,0.0002498,0.0002496,0.00025,0.0002498,0.0002498,0.0002524,0.0002512,0.0002504,0.000252,0.0002532,0.00018062,0.00018068,0.00018038,0.00018048,0.00018164,0.00018216,0.00018178,0.00018136,0.00018144,0.00018148,0.0002816,0.0002802,0.000281,0.0002834,0.00028,0.00028,0.0002808,0.0002834,0.0002838,0.0002828
542,0.0002018,0.00019888,0.0002018,0.00019932,0.00019928,0.0002032,0.0002016,0.0002004,0.000203,0.00019852,0.0002506,0.0002518,0.0002516,0.000251,0.0002502,0.0002542,0.000252,0.0002512,0.0002536,0.0002536,0.00018226,0.00018258,0.00018212,0.00018222,0.00018324,0.00018362,0.00018318,0.00018376,0.0001837,0.00018268,0.0002914,0.0002902,0.0002882,0.0002922,0.0002914,0.0002894,0.0002916,0.0002916,0.0002928,0.000294
544,0.0002082,0.0002062,0.0002092,0.0002058,0.0002066,0.0002082,0.0002086,0.0002064,0.0002088,0.000204,0.0002516,0.0002536,0.0002526,0.0002516,0.000251,0.0002542,0.0002524,0.0002526,0.0002544,0.000255,0.00018434,0.00018438,0.00018434,0.00018436,0.00018542,0.00018484,0.00018484,0.00018536,0.00018562,0.0001848,0.0002996,0.000299,0.0002986,0.0003012,0.0003006,0.0002994,0.0002996,0.0003008,0.0003012,0.0003002
546,0.000213,0.0002114,0.0002142,0.0002114,0.000212,0.0002146,0.0002138,0.0002118,0.000215,0.0002108,0.000252,0.000254,0.000253,0.0002516,0.0002518,0.000255,0.0002526,0.0002526,0.0002542,0.0002548,0.00018568,0.00018576,0.00018586,0.00018578,0.00018626,0.00018644,0.0001861,0.00018636,0.00018666,0.00018542,0.000307,0.0003062,0.0003072,0.0003084,0.0003054,0.0003062,0.0003058,0.000309,0.000309,0.0003076
548,0.000219,0.0002176,0.0002196,0.0002176,0.000217,0.0002204,0.000219,0.0002172,0.000219,0.0002166,0.000252,0.0002544,0.0002536,0.0002524,0.0002514,0.0002544,0.0002532,0.0002516,0.0002554,0.0002544,0.00018712,0.00018726,0.00018768,0.00018716,0.00018776,0.00018774,0.00018756,0.00018788,0.00018792,0.00018668,0.000316,0.0003126,0.0003132,0.0003154,0.000311,0.000314,0.000313,0.0003128,0.0003152,0.0003128
550,0.0002236,0.0002234,0.0002258,0.000223,0.0002238,0.0002254,0.0002236,0.0002226,0.0002224,0.000221,0.0002522,0.0002556,0.0002544,0.0002516,0.0002516,0.000255,0.000253,0.0002522,0.0002548,0.0002544,0.0001888,0.00018864,0.00018826,0.00018816,0.0001891,0.00018836,0.0001877,0.00018884,0.00018852,0.00018744,0.0003218,0.0003196,0.0003186,0.0003226,0.000318,0.0003208,0.000319,0.0003202,0.000323,0.0003164
552,0.0002282,0.0002282,0.0002312,0.0002276,0.0002296,0.0002294,0.0002278,0.0002262,0.000228,0.0002268,0.0002542,0.000255,0.0002534,0.0002522,0.0002514,0.0002558,0.0002518,0.0002508,0.000254,0.0002544,0.0001897,0.0001895,0.00018938,0.00018936,0.00018978,0.00018906,0.00018906,0.00018942,0.00018944,0.00018868,0.0003292,0.0003274,0.0003272,0.000328,0.0003254,0.0003258,0.0003226,0.0003274,0.00033,0.000325
554,0.0002326,0.000233,0.0002358,0.000233,0.0002336,0.0002336,0.0002324,0.0002314,0.0002314,0.00023,0.0002528,0.000254,0.0002534,0.0002514,0.0002514,0.0002568,0.0002524,0.0002498,0.0002536,0.0002538,0.0001901,0.0001905,0.0001902,0.00018984,0.00018972,0.0001889,0.00018916,0.00018938,0.0001896,0.00018848,0.000338,0.0003348,0.0003362,0.0003358,0.0003326,0.0003362,0.0003322,0.0003364,0.0003362,0.0003322
556,0.0002358,0.0002344,0.0002382,0.0002364,0.0002358,0.0002372,0.0002356,0.0002344,0.000235,0.0002334,0.0002524,0.0002538,0.0002522,0.0002498,0.0002518,0.000254,0.0002504,0.0002502,0.000252,0.0002526,0.00019098,0.00019066,0.00019048,0.00019058,0.000191,0.00018916,0.00018938,0.00019018,0.00018962,0.00018894,0.0003592,0.000356,0.000358,0.000359,0.0003548,0.000355,0.0003518,0.0003566,0.0003566,0.0003522
558,0.00024,0.0002374,0.0002416,0.0002378,0.0002388,0.00024,0.000238,0.0002372,0.0002374,0.0002372,0.0002518,0.000254,0.0002514,0.0002496,0.0002502,0.0002542,0.0002502,0.000251,0.0002514,0.000252,0.00019282,0.00019216,0.00019218,0.00019212,0.00019244,0.00019098,0.00019104,0.0001916,0.00019108,0.0001907,0.0004496,0.000445,0.0004448,0.0004462,0.000443,0.000432,0.0004276,0.0004338,0.000433,0.0004294
560,0.0002426,0.0002404,0.0002442,0.0002414,0.0002418,0.0002426,0.0002412,0.0002416,0.0002414,0.0002416,0.0002514,0.0002536,0.0002516,0.0002496,0.0002504,0.0002536,0.0002508,0.0002502,0.0002518,0.0002526,0.0001987,0.00019772,0.00019768,0.0001977,0.00019804,0.00019586,0.00019638,0.00019658,0.00019578,0.00019556,0.0007422,0.0007372,0.0007376,0.000739,0.000735,0.0006944,0.0006898,0.000694,0.0006936,0.00069
562,0.0002484,0.0002468,0.00025,0.0002458,0.000247,0.0002482,0.000246,0.0002458,0.000244,0.0002446,0.0002508,0.0002522,0.00025,0.0002482,0.0002498,0.0002528,0.0002494,0.0002496,0.0002502,0.000251,0.0002106,0.0002098,0.0002088,0.000209,0.0002096,0.000206,0.0002066,0.0002072,0.0002062,0.0002056,0.0014184,0.0014148,0.0014128,0.0014162,0.00141,0.0013184,0.0013136,0.0013166,0.0013186,0.0013154
564,0.000257,0.000256,0.0002594,0.0002552,0.0002552,0.0002548,0.0002542,0.0002526,0.0002524,0.0002522,0.0002516,0.0002522,0.0002492,0.0002484,0.00025,0.000253,0.0002498,0.0002498,0.0002508,0.0002506,0.0002314,0.0002302,0.0002296,0.0002302,0.0002306,0.0002262,0.0002262,0.000227,0.0002256,0.0002252,0.002676,0.002672,0.002666,0.002674,0.002662,0.002518,0.002506,0.00251,0.002516,0.00251
566,0.0002796,0.0002798,0.0002802,0.0002788,0.0002786,0.000275,0.000274,0.0002742,0.0002708,0.000274,0.0002538,0.0002538,0.0002498,0.0002492,0.0002528,0.0002532,0.0002504,0.0002516,0.0002502,0.0002522,0.0002534,0.0002522,0.0002524,0.0002524,0.0002524,0.0002472,0.0002478,0.000248,0.0002476,0.000247,0.004166,0.004166,0.004158,0.004168,0.004154,0.003962,0.003948,0.003952,0.003962,0.003954
568,0.000336,0.0003352,0.0003364,0.0003346,0.0003356,0.0003248,0.0003222,0.0003242,0.00032,0.0003228,0.0002548,0.0002562,0.0002522,0.000252,0.0002544,0.0002538,0.0002508,0.0002516,0.0002516,0.0002532,0.0002708,0.0002696,0.0002696,0.0002698,0.0002698,0.0002644,0.0002652,0.000265,0.0002652,0.0002642,0.005756,0.005768,0.005754,0.005764,0.005746,0.005514,0.005502,0.005508,0.005518,0.005506
570,0.0004942,0.0004934,0.0004928,0.0004928,0.0004934,0.0004618,0.0004606,0.000461,0.0004586,0.0004622,0.0002578,0.0002586,0.0002536,0.0002554,0.0002568,0.0002564,0.000253,0.0002542,0.000254,0.0002544,0.000282,0.0002808,0.00028,0.0002804,0.0002806,0.0002752,0.000276,0.000276,0.0002756,0.0002754,0.007378,0.007404,0.007382,0.007392,0.00737,0.00711,0.007102,0.007104,0.007116,0.0071
572,0.000902,0.0008988,0.000897,0.0008972,0.0008992,0.000829,0.000829,0.0008328,0.0008246,0.0008312,0.0002632,0.0002634,0.0002606,0.0002606,0.0002642,0.000262,0.0002588,0.0002598,0.000259,0.000259,0.0002878,0.0002874,0.0002866,0.0002872,0.0002868,0.0002818,0.0002818,0.0002818,0.0002822,0.0002812,0.008962,0.009006,0.008976,0.008988,0.008958,0.008682,0.008682,0.00868,0.0087,0.008672
574,0.0017644,0.0017576,0.001755,0.0017544,0.0017568,0.0016352,0.0016348,0.001647,0.0016302,0.0016348,0.0002754,0.0002762,0.0002724,0.0002722,0.0002754,0.0002728,0.0002716,0.0002714,0.0002686,0.0002706,0.0002898,0.0002882,0.0002882,0.0002892,0.0002886,0.0002838,0.0002842,0.0002838,0.0002838,0.0002836,0.010496,0.01057,0.010522,0.01054,0.010502,0.010232,0.010246,0.010236,0.010264,0.010224
576,0.003062,0.003054,0.003048,0.00305,0.003052,0.002886,0.002886,0.002932,0.002882,0.002888,0.000298,0.000298,0.0002952,0.0002956,0.0002984,0.0002942,0.0002908,0.0002924,0.000292,0.0002918,0.0002828,0.000282,0.0002816,0.0002824,0.0002826,0.0002796,0.00028,0.000279,0.0002796,0.0002794,0.011798,0.011902,0.01184,0.011858,0.011816,0.011582,0.011612,0.011596,0.011628,0.011572
578,0.004438,0.004428,0.00442,0.004424,0.004426,0.004232,0.004234,0.004338,0.004228,0.004236,0.0003356,0.0003346,0.0003316,0.0003332,0.0003364,0.0003288,0.0003266,0.0003292,0.000326,0.000327,0.0002686,0.0002678,0.000268,0.0002686,0.0002684,0.0002664,0.0002672,0.000266,0.0002672,0.0002666,0.012638,0.01275,0.012688,0.012706,0.012662,0.012472,0.012504,0.012488,0.012524,0.012458
580,0.005852,0.005842,0.00583,0.005838,0.005838,0.005628,0.005628,0.005822,0.005622,0.005628,0.0003972,0.0003964,0.0003924,0.0003954,0.0003966,0.0003876,0.0003844,0.0003874,0.0003838,0.0003862,0.0002526,0.000251,0.0002518,0.0002522,0.0002514,0.0002502,0.0002508,0.0002498,0.0002502,0.0002498,0.01316,0.013248,0.013202,0.013218,0.013176,0.01302,0.013042,0.013032,0.013062,0.01301
582,0.007212,0.007202,0.007188,0.0072,0.007196,0.006978,0.006978,0.007274,0.00697,0.006974,0.0005072,0.000505,0.000501,0.000503,0.0005068,0.0004876,0.000486,0.0004884,0.0004864,0.0004876,0.0002488,0.0002472,0.000247,0.0002484,0.0002478,0.0002446,0.0002446,0.0002436,0.0002446,0.0002442,0.013428,0.01348,0.013458,0.013468,0.013434,0.013302,0.013296,0.013294,0.01332,0.01329
584,0.008448,0.008436,0.008422,0.008432,0.00843,0.008208,0.008208,0.008606,0.008198,0.008202,0.0007138,0.00071,0.0007062,0.0007086,0.0007114,0.0006768,0.0006776,0.000679,0.000676,0.0006774,0.000274,0.000273,0.0002732,0.0002734,0.0002736,0.000266,0.0002668,0.0002654,0.0002668,0.0002664,0.013516,0.013526,0.01353,0.01353,0.013504,0.013386,0.013354,0.013362,0.01338,0.01337
586,0.009552,0.00954,0.009526,0.009536,0.009534,0.00932,0.009316,0.009792,0.009306,0.009312,0.0011204,0.0011164,0.001112,0.001115,0.001118,0.0010584,0.00106,0.0010616,0.0010606,0.0010598,0.000351,0.0003492,0.0003502,0.0003504,0.0003502,0.0003364,0.0003372,0.0003366,0.0003368,0.0003372,0.013434,0.01341,0.013432,0.01343,0.013412,0.013286,0.013236,0.01325,0.013262,0.013272
588,0.010194,0.010182,0.010168,0.010178,0.010176,0.009984,0.009978,0.010386,0.009972,0.009976,0.0015752,0.0015702,0.0015644,0.0015684,0.0015702,0.0015028,0.0015036,0.0015044,0.0015044,0.0015036,0.0004648,0.0004626,0.0004624,0.0004634,0.0004634,0.0004426,0.000444,0.0004426,0.0004434,0.0004434,0.01328,0.013236,0.01327,0.013264,0.013252,0.01312,0.013056,0.013074,0.013082,0.013108
590,0.010348,0.010338,0.01033,0.010342,0.010332,0.010186,0.010178,0.010306,0.010176,0.01018,0.0019654,0.0019604,0.001955,0.0019592,0.0019618,0.0018988,0.0019,0.0019008,0.0019016,0.0019004,0.0006176,0.0006152,0.0006156,0.0006162,0.000616,0.0005876,0.000589,0.000588,0.0005886,0.0005886,0.01303,0.01298,0.013018,0.013012,0.013,0.012864,0.012794,0.012814,0.012824,0.012854
592,0.009834,0.009828,0.009826,0.00984,0.009824,0.009754,0.009744,0.009506,0.009748,0.009746,0.0022,0.002194,0.002194,0.002196,0.002198,0.002148,0.00215,0.002152,0.002152,0.002152,0.00082,0.0008174,0.0008174,0.0008184,0.000818,0.000781,0.0007824,0.0007808,0.0007826,0.0007824,0.012694,0.012644,0.012682,0.012678,0.012666,0.012532,0.012466,0.012486,0.0125,0.012528
594,0.008626,0.008624,0.008628,0.008642,0.008624,0.008644,0.00863,0.008194,0.00864,0.008636,0.002282,0.002278,0.002278,0.00228,0.002282,0.002248,0.00225,0.00225,0.002252,0.002252,0.001073,0.0010702,0.0010708,0.0010706,0.001071,0.0010252,0.0010266,0.0010246,0.001027,0.001027,0.012276,0.012228,0.012266,0.012264,0.012252,0.012138,0.01208,0.012096,0.012108,0.012138
596,0.006768,0.006768,0.006774,0.006786,0.006766,0.006862,0.00685,0.006468,0.006858,0.006854,0.002242,0.00224,0.002238,0.00224,0.002242,0.002222,0.002226,0.002224,0.002228,0.002226,0.0014018,0.0013994,0.0013998,0.0013988,0.0014004,0.001347,0.0013486,0.001346,0.0013484,0.0013488,0.011714,0.011676,0.011706,0.011706,0.011688,0.011618,0.011562,0.011576,0.01159,0.011616
598,0.00502,0.005022,0.005026,0.005034,0.00502,0.005134,0.005128,0.004896,0.005132,0.00513,0.002112,0.00211,0.00211,0.002112,0.002112,0.002108,0.00211,0.002108,0.00211,0.00211,0.001741,0.001738,0.0017382,0.0017374,0.0017388,0.0016822,0.0016834,0.00168,0.0016836,0.0016828,0.011156,0.011122,0.011152,0.011148,0.011138,0.0111,0.01105,0.011062,0.011074,0.011094
600,0.003548,0.003546,0.003552,0.00356,0.003548,0.003652,0.003648,0.00354,0.00365,0.00365,0.0018738,0.0018704,0.0018742,0.0018754,0.0018762,0.0018866,0.001889,0.0018894,0.00189,0.0018904,0.002084,0.002082,0.002082,0.002082,0.002082,0.002024,0.002026,0.002022,0.002026,0.002026,0.010606,0.010578,0.010602,0.010596,0.010586,0.01058,0.010538,0.010544,0.010558,0.010572
602,0.002362,0.002362,0.002366,0.002372,0.002362,0.002448,0.002448,0.002404,0.002448,0.00245,0.0015132,0.0015118,0.0015148,0.0015158,0.0015168,0.001541,0.0015438,0.0015438,0.0015444,0.001546,0.002422,0.00242,0.00242,0.00242,0.002422,0.002364,0.002366,0.00236,0.002366,0.002364,0.01006,0.010038,0.01006,0.010056,0.010044,0.010058,0.010022,0.010026,0.010038,0.010054
604,0.0014216,0.0014212,0.0014228,0.0014284,0.0014192,0.0014904,0.0014878,0.0014732,0.001488,0.0014918,0.0011446,0.0011434,0.0011456,0.0011476,0.0011464,0.0011674,0.0011688,0.0011686,0.0011718,0.001171,0.002746,0.002744,0.002744,0.002744,0.002746,0.002688,0.00269,0.002686,0.00269,0.00269,0.009516,0.009496,0.009522,0.009512,0.009506,0.009524,0.009494,0.009498,0.00951,0.009524
606,0.0007266,0.0007302,0.000728,0.000733,0.0007304,0.0007678,0.000772,0.0007634,0.0007658,0.0007712,0.001063,0.001057,0.00106,0.00106,0.00106,0.0010368,0.0010418,0.00104,0.0010416,0.001041,0.00304,0.003038,0.00304,0.003038,0.00304,0.002988,0.00299,0.002986,0.00299,0.00299,0.008868,0.008852,0.008876,0.008868,0.00886,0.008888,0.008858,0.008864,0.008874,0.008884
608,0.000438,0.0004396,0.0004384,0.0004418,0.0004372,0.00045,0.000452,0.0004526,0.0004502,0.0004544,0.0015566,0.0015468,0.0015462,0.0015476,0.0015448,0.001465,0.0014706,0.0014702,0.0014686,0.0014684,0.003204,0.003204,0.003204,0.003202,0.003204,0.003164,0.003166,0.00316,0.003166,0.003164,0.008098,0.008084,0.008106,0.0081,0.008092,0.008132,0.00811,0.00811,0.008122,0.008132
610,0.0003614,0.0003598,0.0003602,0.000363,0.0003604,0.0003596,0.0003632,0.000364,0.0003624,0.0003642,0.002478,0.002468,0.002464,0.002466,0.002464,0.002338,0.002344,0.002344,0.002342,0.00234,0.003224,0.003226,0.003226,0.003226,0.003228,0.0032,0.003198,0.003194,0.0032,0.003198,0.007168,0.007156,0.007174,0.007168,0.007162,0.007222,0.0072,0.007198,0.00721,0.00722
612,0.0003488,0.0003488,0.0003464,0.0003516,0.000348,0.0003436,0.0003464,0.0003498,0.0003472,0.000349,0.003624,0.00361,0.003606,0.003606,0.003604,0.003454,0.003458,0.003458,0.003458,0.003454,0.003088,0.00309,0.003092,0.003092,0.003092,0.003084,0.00308,0.003078,0.003084,0.003082,0.006122,0.00611,0.006126,0.00612,0.006118,0.006186,0.00617,0.006168,0.006176,0.006184
614,0.0003582,0.0003588,0.0003578,0.0003602,0.0003586,0.000352,0.0003546,0.0003574,0.0003564,0.000356,0.00484,0.004824,0.00482,0.00482,0.004818,0.004656,0.004658,0.004658,0.004658,0.004652,0.002788,0.002792,0.002794,0.002794,0.002794,0.00281,0.002802,0.002804,0.00281,0.002808,0.005038,0.00503,0.005046,0.005036,0.005034,0.00511,0.0051,0.0051,0.005104,0.00511
616,0.0003852,0.0003858,0.0003848,0.0003882,0.0003844,0.000379,0.0003828,0.0003834,0.0003824,0.0003832,0.006126,0.006112,0.006106,0.006102,0.006104,0.005944,0.005946,0.005942,0.005942,0.005936,0.002302,0.002306,0.00231,0.00231,0.00231,0.002348,0.002342,0.002342,0.002346,0.002346,0.003874,0.003868,0.003886,0.003872,0.003874,0.003958,0.00395,0.003948,0.003952,0.003952
618,0.0004294,0.0004294,0.000429,0.0004312,0.0004282,0.0004194,0.0004262,0.0004244,0.0004222,0.000424,0.007278,0.007264,0.00726,0.007252,0.007256,0.00711,0.00711,0.007106,0.007106,0.0071,0.0017462,0.0017526,0.0017534,0.001753,0.001754,0.0018094,0.0018014,0.0018028,0.0018072,0.0018054,0.002822,0.002816,0.002828,0.002822,0.002816,0.002902,0.0029,0.002896,0.002904,0.0029
620,0.0004896,0.0004934,0.000491,0.0004912,0.0004896,0.0004802,0.0004832,0.0004858,0.0004852,0.0004832,0.00824,0.008226,0.008222,0.00821,0.008216,0.0081,0.008094,0.008092,0.008096,0.008086,0.0012134,0.0012184,0.0012198,0.0012194,0.0012192,0.0012776,0.0012714,0.0012732,0.001276,0.0012738,0.00193,0.0019262,0.0019342,0.0019308,0.0019256,0.002006,0.002008,0.002004,0.002006,0.002002
622,0.0005736,0.000576,0.0005742,0.000577,0.000576,0.0005624,0.0005656,0.0005698,0.0005694,0.0005678,0.009016,0.009006,0.009002,0.008986,0.008996,0.008918,0.008908,0.008908,0.00891,0.0089,0.0007908,0.0007938,0.0007952,0.0007944,0.000794,0.000835,0.0008314,0.0008332,0.0008346,0.0008326,0.001241,0.0012318,0.0012402,0.0012364,0.0012332,0.0012918,0.0012916,0.0012872,0.0012904,0.0012892
624,0.0006812,0.0006816,0.000684,0.000683,0.000684,0.0006692,0.0006694,0.0006734,0.0006718,0.0006706,0.009536,0.009526,0.009524,0.009508,0.009516,0.00948,0.00947,0.00947,0.00947,0.009464,0.0006316,0.000632,0.0006326,0.0006318,0.0006322,0.0006376,0.0006358,0.0006368,0.0006378,0.0006368,0.0009092,0.0009002,0.0009068,0.0009064,0.0009012,0.0009188,0.0009218,0.0009142,0.0009182,0.0009214
626,0.0008248,0.000825,0.000823,0.000823,0.0008252,0.0008086,0.0008108,0.0008124,0.0008132,0.0008122,0.009784,0.009776,0.009768,0.00976,0.009768,0.00977,0.009762,0.009762,0.00976,0.009758,0.0008338,0.0008328,0.0008326,0.0008308,0.000832,0.0008002,0.0008004,0.0008008,0.0008022,0.000801,0.0010376,0.0010334,0.0010372,0.0010352,0.001032,0.0010052,0.0010124,0.0010092,0.001007,0.001011
628,0.0009924,0.0009926,0.0009886,0.0009924,0.0009918,0.000974,0.0009756,0.0009798,0.0009788,0.0009748,0.009742,0.00973,0.009726,0.009724,0.009726,0.009752,0.009752,0.009752,0.009746,0.009748,0.0012734,0.0012696,0.0012692,0.0012678,0.0012686,0.0012164,0.0012168,0.0012166,0.0012188,0.0012168,0.0014678,0.0014616,0.0014664,0.0014632,0.0014598,0.0014168,0.0014178,0.0014146,0.0014138,0.0014204
630,0.0011688,0.0011702,0.001167,0.0011694,0.0011662,0.001148,0.0011484,0.0011484,0.001152,0.0011484,0.00951,0.009496,0.009492,0.009496,0.009498,0.009532,0.009536,0.009534,0.009526,0.009532,0.001776,0.001772,0.0017714,0.0017706,0.001771,0.001707,0.0017086,0.0017072,0.001709,0.001708,0.0019904,0.001985,0.0019862,0.0019884,0.0019792,0.0019292,0.0019292,0.0019276,0.0019232,0.0019312
632,0.0013562,0.0013578,0.001353,0.001356,0.001353,0.0013328,0.0013338,0.0013318,0.0013374,0.001331,0.009146,0.00913,0.009126,0.009134,0.009136,0.009172,0.009176,0.009174,0.009162,0.00917,0.002298,0.002294,0.002294,0.002292,0.002294,0.002222,0.002224,0.00222,0.002224,0.002222,0.002538,0.002534,0.002538,0.002538,0.002534,0.002472,0.002472,0.00247,0.002466,0.002472
634,0.0015476,0.0015506,0.0015464,0.00155,0.0015476,0.0015244,0.0015204,0.0015202,0.0015298,0.001524,0.008708,0.008698,0.008692,0.0087,0.0087,0.008734,0.008736,0.008736,0.008724,0.00873,0.002818,0.002812,0.002812,0.002812,0.002814,0.002736,0.002738,0.002734,0.002738,0.002736,0.003088,0.003084,0.00309,0.003094,0.00308,0.003022,0.003018,0.003016,0.003016,0.00302
636,0.001752,0.0017552,0.0017492,0.0017498,0.0017536,0.0017234,0.001723,0.0017282,0.0017326,0.0017234,0.008194,0.008182,0.008178,0.008184,0.008186,0.008216,0.008212,0.008212,0.008202,0.008208,0.003362,0.003358,0.003356,0.003356,0.003358,0.00328,0.003282,0.003278,0.003282,0.003278,0.003664,0.003664,0.003664,0.003668,0.003656,0.003598,0.003588,0.003596,0.00359,0.003604
638,0.0019308,0.001933,0.0019306,0.0019308,0.0019318,0.0019088,0.0019098,0.0019086,0.0019166,0.0019046,0.00772,0.007712,0.007706,0.00771,0.007714,0.007746,0.00774,0.00774,0.007728,0.007734,0.003814,0.00381,0.003808,0.003808,0.00381,0.00374,0.003742,0.003738,0.003742,0.003738,0.004128,0.004126,0.004132,0.004132,0.004122,0.004074,0.004064,0.004072,0.004068,0.004074
640,0.0021,0.002098,0.002098,0.002096,0.002098,0.002082,0.002078,0.002074,0.002086,0.002078,0.007304,0.007298,0.007292,0.007294,0.0073,0.007336,0.00733,0.007328,0.00732,0.007324,0.004158,0.004156,0.004154,0.004154,0.004154,0.0041,0.004102,0.004096,0.004104,0.004098,0.004428,0.004428,0.004432,0.004432,0.00442,0.0044,0.004388,0.004394,0.004392,0.004398
642,0.002252,0.002248,0.002248,0.00225,0.002248,0.002236,0.002234,0.002234,0.002244,0.002236,0.00692,0.006916,0.006908,0.00691,0.006916,0.006964,0.006956,0.006954,0.006948,0.006954,0.004364,0.00436,0.00436,0.00436,0.00436,0.004328,0.004328,0.004324,0.004334,0.004326,0.00452,0.00452,0.004524,0.004526,0.004516,0.004522,0.004508,0.004518,0.004516,0.004524
644,0.002396,0.002394,0.002392,0.002392,0.002394,0.00239,0.002384,0.00238,0.002394,0.002388,0.006576,0.006574,0.006566,0.006564,0.006574,0.006636,0.006624,0.006626,0.006618,0.006624,0.00443,0.004428,0.004426,0.004428,0.004428,0.004422,0.00442,0.004416,0.004428,0.00442,0.00445,0.004452,0.004452,0.004456,0.004446,0.004474,0.004468,0.004474,0.004472,0.00448
646,0.00255,0.00255,0.002548,0.002546,0.002552,0.00255,0.00255,0.00255,0.002558,0.002552,0.006226,0.006224,0.006218,0.00622,0.006224,0.006298,0.00629,0.006294,0.006286,0.006288,0.004322,0.004324,0.004322,0.004324,0.004324,0.00435,0.004348,0.004346,0.004356,0.004348,0.004246,0.004248,0.00425,0.004256,0.004244,0.004296,0.004284,0.00429,0.004292,0.004292
648,0.002678,0.002678,0.002674,0.002672,0.002674,0.002684,0.002682,0.00268,0.00269,0.002686,0.005952,0.005954,0.005946,0.005948,0.005954,0.006036,0.006028,0.006028,0.006022,0.006022,0.004068,0.00407,0.004068,0.00407,0.00407,0.004132,0.004122,0.004124,0.004132,0.004126,0.00394,0.003942,0.00395,0.003952,0.003946,0.004006,0.004,0.004006,0.004002,0.004012
650,0.002782,0.00278,0.002778,0.002774,0.002778,0.002792,0.002788,0.002786,0.002798,0.002794,0.00569,0.00569,0.005682,0.00568,0.00569,0.00577,0.005762,0.005766,0.00576,0.005758,0.00366,0.00366,0.00366,0.003664,0.003662,0.003748,0.003738,0.00374,0.003748,0.003742,0.003512,0.003514,0.003522,0.003526,0.003516,0.003588,0.003584,0.003592,0.003586,0.003592
652,0.00285,0.002848,0.00285,0.00284,0.002846,0.002862,0.002856,0.002856,0.002862,0.002862,0.005402,0.0054,0.005394,0.005392,0.005402,0.005474,0.005468,0.00547,0.00546,0.005464,0.003114,0.003116,0.003116,0.00312,0.003118,0.003212,0.003204,0.003204,0.003212,0.003206,0.00299,0.002994,0.003,0.003002,0.002996,0.003068,0.003064,0.003072,0.003068,0.003072
654,0.002898,0.002896,0.002896,0.00289,0.002894,0.002906,0.002902,0.002902,0.00291,0.00291,0.005114,0.00511,0.005104,0.005104,0.005112,0.005174,0.005168,0.005168,0.005162,0.00516,0.002502,0.002502,0.002502,0.002506,0.002506,0.002594,0.00259,0.002588,0.002594,0.002586,0.002428,0.002436,0.002434,0.002442,0.002442,0.002504,0.002496,0.002504,0.002494,0.0025
656,0.002946,0.002946,0.002944,0.002942,0.002946,0.002946,0.002942,0.002948,0.00295,0.002952,0.004836,0.004832,0.004824,0.004824,0.004832,0.00488,0.004872,0.00487,0.004866,0.004868,0.0018386,0.0018406,0.0018404,0.0018426,0.0018412,0.001918,0.0019126,0.0019136,0.0019186,0.0019128,0.0018248,0.0018318,0.0018358,0.0018434,0.0018386,0.0018898,0.0018878,0.0018928,0.0018844,0.001894
658,0.002988,0.00298,0.002984,0.002982,0.002984,0.002986,0.00298,0.002982,0.002986,0.00299,0.004626,0.004626,0.004614,0.004616,0.004624,0.004658,0.004648,0.004648,0.004646,0.004648,0.0013108,0.001313,0.0013124,0.0013142,0.0013128,0.0013766,0.0013722,0.0013732,0.001376,0.0013726,0.0013334,0.001342,0.001341,0.0013504,0.0013462,0.0013874,0.0013912,0.0013958,0.001389,0.0013922
660,0.003016,0.00301,0.00301,0.003006,0.003008,0.003008,0.003004,0.003008,0.003012,0.003016,0.004438,0.00444,0.004428,0.004432,0.00444,0.004464,0.004452,0.004456,0.004454,0.004454,0.000853,0.0008536,0.0008552,0.0008564,0.000855,0.0009068,0.0009034,0.000904,0.0009058,0.0009032,0.000887,0.0008936,0.000899,0.0009088,0.000906,0.0009396,0.0009404,0.000943,0.0009402,0.0009404
662,0.003014,0.003012,0.003008,0.003008,0.003004,0.003006,0.003002,0.003012,0.003006,0.003014,0.00425,0.004248,0.004238,0.004244,0.004252,0.00427,0.004266,0.004262,0.004262,0.004262,0.0004886,0.0004886,0.0004894,0.0004908,0.0004904,0.0005258,0.0005244,0.000524,0.000525,0.0005238,0.0005288,0.0005354,0.0005394,0.0005514,0.0005482,0.000569,0.0005684,0.0005754,0.0005698,0.0005706
664,0.00293,0.002928,0.002922,0.00292,0.002922,0.002936,0.00293,0.00293,0.002928,0.00294,0.003988,0.003984,0.003978,0.003982,0.003986,0.004014,0.00401,0.004008,0.004008,0.004008,0.000257,0.000255,0.0002558,0.0002556,0.0002564,0.0002758,0.0002744,0.0002752,0.0002744,0.0002726,0.0003008,0.0003064,0.0003024,0.0003188,0.0003208,0.0003244,0.0003202,0.000333,0.000327,0.0003258
666,0.002714,0.00271,0.002712,0.002712,0.002706,0.002736,0.002728,0.00273,0.002732,0.00274,0.003598,0.003596,0.003592,0.003596,0.003598,0.003646,0.003636,0.003634,0.003638,0.003634,0.0001658,0.00016314,0.00016512,0.00016532,0.00016544,0.0001718,0.00017306,0.00017318,0.0001716,0.00017156,0.0002092,0.0002124,0.0002118,0.0002206,0.0002272,0.0002184,0.000218,0.000229,0.0002214,0.0002232
668,0.002422,0.002416,0.00242,0.00242,0.002416,0.002456,0.002448,0.002448,0.002452,0.00246,0.003146,0.003144,0.003142,0.003142,0.00315,0.003206,0.003196,0.0032,0.003202,0.003198,0.00014106,0.00014,0.00014066,0.00014112,0.0001403,0.00014464,0.0001464,0.00014616,0.00014446,0.00014464,0.0001804,0.00018852,0.00018206,0.00019434,0.0002012,0.00019412,0.00018632,0.00019492,0.00019436,0.00019374
670,0.00208,0.002074,0.002076,0.002078,0.00207,0.002124,0.002118,0.002116,0.00212,0.002126,0.00266,0.002658,0.002656,0.002658,0.002664,0.002726,0.002718,0.002718,0.002724,0.002722,0.00013216,0.00013006,0.00013148,0.00013236,0.00013178,0.00013558,0.00013664,0.00013696,0.00013404,0.00013468,0.0001645,0.00017378,0.00017224,0.00017672,0.00018664,0.00017724,0.00017404,0.00018112,0.0001808,0.0001818
672,0.0017048,0.0017062,0.0017064,0.001711,0.0016986,0.0017586,0.0017546,0.0017518,0.0017562,0.0017588,0.00216,0.002158,0.002158,0.002156,0.002166,0.00223,0.002224,0.00222,0.002226,0.002224,0.00012618,0.00012572,0.00012606,0.00012712,0.0001273,0.0001317,0.0001297,0.00013064,0.00012986,0.0001302,0.00015702,0.00016594,0.0001664,0.0001692,0.00017602,0.00016708,0.00016232,0.00016764,0.0001672,0.00017478
674,0.0012844,0.001283,0.001287,0.0012872,0.0012768,0.001334,0.0013306,0.0013308,0.0013306,0.0013352,0.0016078,0.001608,0.001609,0.0016108,0.0016168,0.0016778,0.0016738,0.0016684,0.0016794,0.0016758,0.00012062,0.00012056,0.00012108,0.00012156,0.00012172,0.00012636,0.00012578,0.0001253,0.0001248,0.00012444,0.00015134,0.00015506,0.00016108,0.00016558,0.00016612,0.0001611,0.00014882,0.00016348,0.00016454,0.00016392
676,0.0009112,0.0009058,0.0009086,0.0009076,0.0009058,0.0009526,0.0009504,0.000954,0.0009524,0.0009568,0.0011366,0.001134,0.0011372,0.0011378,0.0011426,0.0011982,0.0011914,0.0011902,0.0011986,0.0011934,0.0001165,0.0001153,0.0001173,0.00011552,0.00011732,0.0001214,0.00012118,0.00012168,0.00012074,0.00012132,0.00014734,0.00014474,0.00015116,0.00015632,0.00016156,0.0001532,0.00014482,0.00015372,0.00015908,0.00015678
678,0.0005856,0.000581,0.0005852,0.0005848,0.0005786,0.0006182,0.0006218,0.0006202,0.0006166,0.0006226,0.000733,0.000735,0.0007376,0.0007362,0.0007402,0.0007832,0.0007798,0.0007774,0.0007856,0.0007802,0.00011234,0.00011138,0.00011302,0.00011192,0.0001131,0.0001167,0.00011628,0.00011644,0.00011656,0.0001174,0.00014056,0.00014112,0.00013936,0.00014954,0.0001528,0.00014676,0.00014028,0.00014836,0.00015302,0.0001523
680,0.000349,0.0003448,0.000348,0.0003462,0.0003402,0.000368,0.0003708,0.0003712,0.0003634,0.000369,0.000442,0.000438,0.0004446,0.0004422,0.0004446,0.0004712,0.0004678,0.0004672,0.0004756,0.000465,0.00010932,0.00010786,0.0001103,0.00010842,0.00011076,0.00011422,0.0001133,0.00011216,0.000112,0.00011374,0.00013408,0.00013988,0.00013728,0.00014174,0.0001455,0.00014512,0.00013612,0.00014274,0.00014928,0.00014564
682,0.0002196,0.0002154,0.0002206,0.0002234,0.0002172,0.00023,0.0002304,0.0002336,0.000227,0.0002284,0.0002846,0.000283,0.0002894,0.0002868,0.000289,0.0002966,0.000299,0.0002976,0.000303,0.0002988,0.00010742,0.00010592,0.00010876,0.00010612,0.00010892,0.00011084,0.00011206,0.00011134,0.00011012,0.0001116,0.00013618,0.0001402,0.00013814,0.00014186,0.00014006,0.00014372,0.00012976,0.00014674,0.00015026,0.00014688
684,0.00018276,0.00017212,0.00017704,0.00018472,0.00017662,0.00017782,0.00018266,0.00017696,0.00017562,0.00017978,0.000228,0.0002268,0.0002352,0.0002308,0.0002332,0.0002338,0.000232,0.0002322,0.0002372,0.0002306,0.00010598,0.00010504,0.0001075,0.00010562,0.00010694,0.00011016,0.00010702,0.00011,0.00010936,0.00010988,0.00012974,0.00013546,0.00014156,0.0001386,0.00014324,0.00013696,0.00012682,0.00013956,0.0001479,0.00014278
686,0.00016838,0.00016038,0.0001634,0.00016662,0.00016556,0.0001631,0.00017146,0.00016754,0.00016352,0.00016304,0.0002076,0.0002082,0.0002142,0.0002102,0.000211,0.0002076,0.0002102,0.000211,0.0002154,0.0002102,0.00010246,0.00010204,0.00010384,0.0001014,0.00010318,0.0001077,0.00010568,0.00010638,0.0001046,0.0001059,0.00013062,0.00013666,0.00013558,0.0001348,0.00014164,0.00013598,0.00012228,0.00013936,0.00014454,0.0001388
688,0.00015874,0.00014698,0.00015586,0.00015776,0.00015582,0.0001578,0.00016632,0.00015674,0.00015832,0.0001524,0.00019304,0.00019492,0.00019924,0.00019704,0.00019642,0.00019354,0.00019692,0.00019748,0.0002004,0.00019806,9.87e-05,9.91e-05,9.984e-05,9.86e-05,9.9e-05,0.00010418,0.00010248,0.00010118,0.00010094,0.00010318,0.00013118,0.00012598,0.00013258,0.00012746,0.000137,0.0001318,0.00012318,0.00013636,0.00014392,0.00013592
690,0.0001496,0.00014222,0.00015164,0.00015154,0.00014612,0.00015274,0.00015502,0.00015264,0.0001505,0.00014846,0.00018208,0.00018176,0.00018772,0.00018402,0.00018358,0.00018096,0.0001855,0.00018348,0.00018834,0.0001855,9.624e-05,9.504e-05,9.718e-05,9.512e-05,9.596e-05,0.00010052,9.94e-05,9.794e-05,9.786e-05,9.994e-05,0.00012574,0.0001242,0.00013006,0.00012508,0.00012964,0.00012796,0.0001254,0.00013174,0.00014152,0.00013456
692,0.00013876,0.00013694,0.00014172,0.00014408,0.00014022,0.0001473,0.00014982,0.00013682,0.00014454,0.0001372,0.00017262,0.00017026,0.00018022,0.00017064,0.00017184,0.00016906,0.0001721,0.0001707,0.00017448,0.00017308,9.128e-05,9.094e-05,9.358e-05,9.036e-05,9.328e-05,9.618e-05,9.454e-05,9.378e-05,9.424e-05,9.506e-05,0.00012434,0.00012114,0.00013282,0.00012242,0.00012806,0.00013474,0.00011224,0.00013168,0.00013072,0.00012808
694,0.000136,0.0001245,0.00012742,0.00013422,0.00013138,0.0001368,0.00014092,0.0001344,0.00013582,0.00013032,0.00015854,0.00015582,0.00016844,0.00016054,0.0001581,0.00015272,0.00016112,0.00016436,0.00016362,0.00016022,8.792e-05,8.688e-05,9.014e-05,8.648e-05,8.776e-05,9.056e-05,9e-05,8.866e-05,8.93e-05,9.144e-05,0.00012732,0.00011652,0.0001268,0.00011542,0.00012156,0.00012832,0.0001152,0.00012548,0.00012916,0.00011844
696,0.00012808,0.00011754,0.00011982,0.00013064,0.00012838,0.00013024,0.00013364,0.00012742,0.00013046,0.00012244,0.00014932,0.00014574,0.00015772,0.0001482,0.00014596,0.00014594,0.00014954,0.00015006,0.00014776,0.00014828,8.434e-05,8.276e-05,8.552e-05,8.236e-05,8.4e-05,8.572e-05,8.69e-05,8.646e-05,8.662e-05,8.69e-05,0.00013268,0.00011854,0.00011908,0.00011364,0.0001143,0.00011852,0.00011628,0.00012116,0.0001252,0.00011796
698,0.000118,0.00011026,0.00011838,0.00011936,0.00011702,0.00012686,0.00012834,0.00011086,0.00012468,0.00011126,0.00013748,0.00013606,0.00014832,0.00013704,0.00013762,0.00013482,0.00014166,0.000139,0.0001375,0.00014016,7.924e-05,7.988e-05,8.068e-05,7.86e-05,7.956e-05,8.216e-05,8.29e-05,7.996e-05,8.04e-05,8.252e-05,0.00012514,0.00011334,0.00011822,0.00011242,0.0001145,0.00012096,0.00011182,0.0001191,0.00012018,0.00011356
700,0.00011318,0.00010094,0.00011108,0.00011736,0.00011282,0.00011968,0.00012278,0.00010784,0.00011554,0.00011172,0.00012836,0.00012546,0.00013504,0.0001266,0.0001299,0.00012142,0.00013818,0.0001356,0.0001288,0.00013206,7.534e-05,7.81e-05,7.732e-05,7.382e-05,7.654e-05,7.808e-05,7.822e-05,7.644e-05,7.798e-05,7.958e-05,0.00012692,0.00011302,0.00011636,0.00010638,0.00011046,0.000123,0.0001046,0.00011386,0.00012008,0.00011268
702,0.00010662,9.658e-05,0.00010256,0.0001084,0.00010652,0.00010924,0.00011188,0.00011226,0.0001065,9.994e-05,0.00011646,0.000117,0.00012544,0.00012156,0.00011924,0.00011914,0.00013214,0.00012206,0.00011974,0.00012614,7.064e-05,7.35e-05,7.164e-05,7.014e-05,7.19e-05,7.476e-05,7.412e-05,7.398e-05,7.248e-05,7.558e-05,0.00012466,0.0001071,0.0001146,0.00010546,9.972e-05,0.0001177,0.00010246,0.00010472,0.00011094,0.00011416
704,0.00010178,9.774e-05,9.696e-05,9.85e-05,0.00010396,0.00010256,0.00010814,9.722e-05,0.0001116,9.652e-05,0.00011308,0.00011272,0.00012258,0.00011672,0.00011392,0.00011212,0.0001222,0.00011762,0.0001081,0.00012192,6.796e-05,6.904e-05,7.002e-05,6.624e-05,6.696e-05,7.028e-05,6.89e-05,7.014e-05,6.796e-05,7.12e-05,0.00012436,0.00010804,0.0001156,0.00010008,0.00010546,0.00012044,0.00010586,0.00010378,0.0001106,0.00011294
706,9.496e-05,9.414e-05,9.498e-05,9.942e-05,9.436e-05,9.74e-05,0.0001048,0.0001007,0.00010554,9.01e-05,0.0001114,0.00010806,0.00011354,0.00010762,0.00010508,0.00010478,0.00011642,0.00011426,0.00010494,0.00011142,6.532e-05,6.574e-05,6.498e-05,6.198e-05,6.36e-05,6.63e-05,6.686e-05,6.56e-05,6.59e-05,6.814e-05,0.0001209,0.00010778,0.00011338,9.662e-05,0.00010292,0.00011372,0.0001008,0.00010186,0.00010568,0.00010832
708,9.402e-05,8.594e-05,9.62e-05,9.602e-05,8.682e-05,9.078e-05,9.878e-05,9.254e-05,9.64e-05,9.01e-05,0.0001097,0.00010454,0.00010896,0.0001061,0.00010256,0.00010316,0.00010924,0.0001085,0.00010502,0.0001084,6.124e-05,6.312e-05,6.064e-05,5.82e-05,6.066e-05,6.402e-05,6.252e-05,6.318e-05,6.45e-05,6.596e-05,0.0001149,0.00010168,0.0001103,9.192e-05,0.00010452,0.00010476,0.00010016,0.0001029,0.00010202,0.00010596
710,9.372e-05,8.62e-05,8.766e-05,9.114e-05,8.824e-05,8.982e-05,9.804e-05,9.106e-05,9.268e-05,8.65e-05,0.00010242,0.00010144,0.00010588,0.0001017,9.472e-05,0.00010156,0.00011176,0.00010348,9.928e-05,0.00010736,5.99e-05,6.172e-05,5.968e-05,5.312e-05,6.004e-05,6e-05,6.162e-05,5.87e-05,5.872e-05,6.256e-05,0.00011006,0.00010168,0.00010772,9.584e-05,0.00010342,0.00011028,0.00010068,8.984e-05,9.174e-05,9.902e-05
712,8.76e-05,8.134e-05,8.604e-05,8.502e-05,8.31e-05,8.396e-05,9.086e-05,8.86e-05,9.198e-05,8.332e-05,9.828e-05,9.808e-05,0.00010172,9.87e-05,9.502e-05,0.00010136,0.00010594,0.00010322,9.79e-05,0.00010468,5.594e-05,5.83e-05,5.648e-05,5.294e-05,5.686e-05,5.812e-05,5.922e-05,5.694e-05,5.626e-05,5.84e-05,0.00011656,9.874e-05,0.00010052,9.084e-05,9.61e-05,0.00010696,9.736e-05,8.15e-05,9.6e-05,9.956e-05
714,7.876e-05,7.204e-05,8.136e-05,8.394e-05,8.252e-05,7.944e-05,8.88e-05,7.656e-05,8.548e-05,7.948e-05,9.304e-05,9.434e-05,9.338e-05,9.242e-05,9.348e-05,9.894e-05,0.00010686,0.00010172,9.558e-05,0.0001028,5.314e-05,5.468e-05,5.31e-05,5.046e-05,5.384e-05,5.458e-05,5.48e-05,5.498e-05,5.546e-05,5.446e-05,0.00010888,0.00010282,0.00010348,8.552e-05,9.67e-05,0.00010064,9.928e-05,8.37e-05,8.934e-05,9.404e-05
716,7.144e-05,7.584e-05,7.594e-05,8.114e-05,7.558e-05,7.654e-05,8.538e-05,8.076e-05,7.996e-05,7.736e-05,9.044e-05,9.158e-05,9.078e-05,8.83e-05,8.758e-05,8.968e-05,0.00010222,9.692e-05,9.002e-05,9.764e-05,5.044e-05,5.38e-05,4.942e-05,4.582e-05,5.194e-05,5.27e-05,5.19e-05,5.128e-05,5.068e-05,5.166e-05,0.00010784,9.784e-05,0.00010154,9.074e-05,9.248e-05,9.026e-05,9.382e-05,8.644e-05,8.4e-05,8.832e-05
718,6.842e-05,7.3e-05,7.356e-05,7.484e-05,7e-05,7.206e-05,7.388e-05,6.922e-05,7.746e-05,7.198e-05,8.41e-05,8.808e-05,8.828e-05,8.43e-05,8.282e-05,9.2e-05,9.448e-05,9.154e-05,8.596e-05,8.926e-05,4.804e-05,4.862e-05,4.47e-05,4.57e-05,4.856e-05,4.992e-05,4.924e-05,4.712e-05,4.824e-05,5.136e-05,0.00010782,0.00010288,9.384e-05,8.576e-05,7.69e-05,8.698e-05,8.74e-05,8.09e-05,9.114e-05,8.412e-05
720,6.228e-05,6.58e-05,6.842e-05,6.682e-05,6.746e-05,6.276e-05,6.856e-05,6.13e-05,7.006e-05,6.992e-05,8.142e-05,8.63e-05,8.718e-05,8.524e-05,7.862e-05,8.886e-05,8.574e-05,8.756e-05,8.58e-05,9.004e-05,4.42e-05,4.678e-05,4.214e-05,4.232e-05,4.408e-05,4.744e-05,4.758e-05,4.598e-05,4.576e-05,4.826e-05,0.0001001,9.35e-05,0.00010218,7.71e-05,8.35e-05,9.324e-05,9.826e-05,8.054e-05,8.01e-05,7.56e-05
722,4.842e-05,5.99e-05,6.148e-05,6.338e-05,5.88e-05,6.018e-05,5.828e-05,5.898e-05,6.436e-05,6.716e-05,7.728e-05,7.922e-05,7.642e-05,8.116e-05,7.21e-05,8.238e-05,8.536e-05,8.918e-05,8.374e-05,8.39e-05,4.338e-05,4.694e-05,3.99e-05,4.046e-05,4.464e-05,4.498e-05,4.794e-05,4.602e-05,4.53e-05,4.562e-05,9.04e-05,9.016e-05,0.00010372,7.092e-05,7.77e-05,8.796e-05,9.588e-05,7.474e-05,7.01e-05,8.3e-05
724,4.502e-05,5.978e-05,5.478e-05,5.952e-05,5.176e-05,5.24e-05,4.688e-05,6.21e-05,5.632e-05,6.382e-05,7.46e-05,7.808e-05,7.31e-05,7.246e-05,7.146e-05,8.25e-05,8.104e-05,8.142e-05,7.906e-05,8.156e-05,4.218e-05,4.216e-05,3.726e-05,3.864e-05,4.278e-05,4.522e-05,4.796e-05,4.332e-05,4.172e-05,4.618e-05,8.724e-05,9.904e-05,9.258e-05,8.07e-05,7.85e-05,8.586e-05,9.238e-05,6.886e-05,6.638e-05,8.254e-05
726,4.856e-05,5.316e-05,4.588e-05,5.656e-05,4.702e-05,5.572e-05,4.976e-05,4.984e-05,6.27e-05,5.154e-05,7.088e-05,6.752e-05,7.076e-05,6.726e-05,6.676e-05,7.164e-05,7.65e-05,7.766e-05,7.984e-05,7.376e-05,4.166e-05,4.008e-05,3.63e-05,3.66e-05,4.17e-05,4.39e-05,4.692e-05,4.164e-05,4.178e-05,4.35e-05,8.32e-05,9.35e-05,9.19e-05,7.538e-05,7.01e-05,7.73e-05,9.662e-05,6.948e-05,6.01e-05,6.406e-05
728,4.072e-05,5.406e-05,4.708e-05,5.424e-05,4.78e-05,5.538e-05,3.962e-05,5.584e-05,5.882e-05,5.046e-05,7.046e-05,6.936e-05,6.86e-05,6.664e-05,6.542e-05,7.074e-05,7.08e-05,7.826e-05,7.95e-05,7.218e-05,4.078e-05,4.182e-05,3.774e-05,3.75e-05,4.346e-05,4.256e-05,4.734e-05,4.008e-05,4.38e-05,4.31e-05,6.8e-05,8.504e-05,7.17e-05,6.004e-05,7.164e-05,7.702e-05,9.32e-05,7.282e-05,5.996e-05,6.652e-05
730,3.518e-05,4.566e-05,4.64e-05,4.366e-05,3.97e-05,5.832e-05,4.126e-05,3.806e-05,5.118e-05,5.322e-05,6.548e-05,6.878e-05,6.386e-05,6.87e-05,6.348e-05,7.014e-05,7.048e-05,7.064e-05,7.22e-05,7.114e-05,4.244e-05,4.168e-05,3.964e-05,3.938e-05,4.196e-05,4.392e-05,4.454e-05,4.184e-05,4.122e-05,4.328e-05,6.238e-05,8.1e-05,7.762e-05,6.334e-05,6.39e-05,7.942e-05,9.772e-05,7.228e-05,5.904e-05,5.858e-05
732,2.808e-05,4.548e-05,4.128e-05,3.596e-05,4.18e-05,5.778e-05,3.18e-05,4.988e-05,5.118e-05,5.498e-05,5.95e-05,6.414e-05,5.964e-05,6.344e-05,5.868e-05,6.924e-05,5.82e-05,7.546e-05,6.5e-05,6.142e-05,4.148e-05,4.174e-05,3.86e-05,4.092e-05,3.938e-05,4.4e-05,4.518e-05,4.184e-05,4.228e-05,4.198e-05,6.878e-05,7.782e-05,8.24e-05,6.65e-05,6.15e-05,6.516e-05,9.512e-05,6.778e-05,6.33e-05,5.376e-05
734,2.588e-05,4.422e-05,4.372e-05,3.6e-05,4.052e-05,4.654e-05,2.154e-05,4.92e-05,4.388e-05,4.656e-05,5.926e-05,6.272e-05,5.872e-05,6.64e-05,5.758e-05,5.852e-05,5.184e-05,7.592e-05,6.322e-05,5.774e-05,3.944e-05,3.99e-05,3.714e-05,4.212e-05,3.75e-05,4.346e-05,4.004e-05,4.072e-05,4.3e-05,3.914e-05,5.708e-05,8.048e-05,7.528e-05,7.586e-05,5.584e-05,5.71e-05,9.106e-05,6.83e-05,5.906e-05,4.47e-05
736,1.8992e-05,3.572e-05,4.226e-05,2.31e-05,3.292e-05,3.962e-05,1.9696e-05,2.346e-05,4.09e-05,4.522e-05,5.986e-05,5.5e-05,5.634e-05,5.602e-05,5.376e-05,5.288e-05,4.612e-05,6.842e-05,6.242e-05,6.06e-05,3.84e-05,3.3e-05,3.34e-05,3.796e-05,3.372e-05,3.566e-05,3.82e-05,3.646e-05,3.81e-05,3.456e-05,5.466e-05,8.326e-05,6.258e-05,6.34e-05,6.422e-05,6.38e-05,8.632e-05,5.118e-05,4.59e-05,4.202e-05
738,8.328e-06,3.254e-05,3.614e-05,2.648e-05,2.596e-05,4.514e-05,9.566e-06,2.094e-05,3.668e-05,4.482e-05,5.66e-05,5.49e-05,5.218e-05,5.226e-05,4.598e-05,4.816e-05,4.016e-05,6.306e-05,5.304e-05,5.016e-05,2.942e-05,3.014e-05,3.118e-05,3.334e-05,3.228e-05,3.252e-05,3.576e-05,3.196e-05,3.386e-05,3.394e-05,4.496e-05,6.522e-05,4.902e-05,4.462e-05,4.26e-05,4.902e-05,7.872e-05,4.484e-05,4.308e-05,3.246e-05
740,1.3198e-05,3.502e-05,2.574e-05,2.266e-05,2.284e-05,3.716e-05,6.004e-06,2.838e-05,2.336e-05,3.674e-05,5.05e-05,5.552e-05,3.96e-05,5.516e-05,4.214e-05,5.006e-05,3.688e-05,6.134e-05,5.99e-05,4.64e-05,2.816e-05,2.788e-05,2.812e-05,2.806e-05,2.972e-05,2.85e-05,3.184e-05,3.29e-05,3.054e-05,3.006e-05,2.136e-05,4.922e-05,3.61e-05,3.852e-05,4.492e-05,4.682e-05,7.872e-05,4.34e-05,4.156e-05,3.572e-05
742,4.394e-06,3.026e-05,2.576e-05,1.6694e-05,1.5926e-05,3.022e-05,3.864e-06,1.5624e-05,2.008e-05,3.262e-05,5.504e-05,5.024e-05,4.282e-05,5.822e-05,4.494e-05,4.378e-05,3.64e-05,6.302e-05,6.158e-05,4.656e-05,2.946e-05,2.476e-05,2.584e-05,2.966e-05,2.222e-05,2.672e-05,3.016e-05,2.804e-05,2.734e-05,2.944e-05,1.7636e-05,4.38e-05,3.052e-05,3.132e-05,3.304e-05,3.588e-05,6.792e-05,5.628e-05,3.046e-05,4.566e-05
744,1.4096e-06,2.366e-05,2.874e-05,2.428e-05,2.66e-05,2.848e-05,9.056e-06,2.66e-05,2.388e-05,4.076e-05,5.692e-05,5.394e-05,3.794e-05,5.214e-05,3.15e-05,4.424e-05,3.546e-05,6.156e-05,5.33e-05,4.53e-05,2.386e-05,1.7276e-05,2.164e-05,2.376e-05,2.27e-05,2.134e-05,2.75e-05,2.642e-05,2.188e-05,2.796e-05,2.484e-05,2.038e-05,2.752e-05,3.566e-05,3.51e-05,1.913e-05,5.674e-05,3.296e-05,3.028e-05,2.372e-05
746,3.418e-06,2.906e-05,2.414e-05,2.56e-05,2.144e-05,3.218e-05,1.5754e-05,1.4186e-05,1.3802e-05,3.65e-05,5.202e-05,5.242e-05,3.942e-05,5.542e-05,3.06e-05,4.61e-05,2.442e-05,5.42e-05,5.048e-05,3.648e-05,1.9392e-05,1.5808e-05,2.082e-05,2.242e-05,2.122e-05,2.084e-05,2.352e-05,2.612e-05,2.2e-05,2.328e-05,2.106e-05,2.88e-05,1.8906e-05,2.15e-05,4.002e-05,2.72e-05,7.284e-05,4.504e-05,2.604e-05,3.386e-05
748,1.2306e-05,2.928e-05,1.9732e-05,1.1224e-05,1.7054e-05,2.352e-05,1.5102e-05,1.9566e-05,2.458e-05,2.734e-05,5.336e-05,4.426e-05,3.928e-05,5.886e-05,3.348e-05,4.278e-05,2.886e-05,5.198e-05,5.28e-05,3.748e-05,2.05e-05,1.2526e-05,2.174e-05,1.9038e-05,1.904e-05,2.146e-05,2.28e-05,2.606e-05,2.366e-05,2.056e-05,1.7582e-05,3.036e-05,8.848e-06,1.8e-05,3.824e-05,1.1376e-05,6.056e-05,4.292e-05,2.758e-05,3.948e-05
750,2.068e-05,3.504e-05,1.7882e-05,3.93e-06,2.716e-05,2.24e-05,1.8478e-05,1.4804e-05,2.374e-05,2.694e-05,6.192e-05,4.548e-05,3.792e-05,6.246e-05,3.542e-05,3.598e-05,1.9988e-05,5.37e-05,5.742e-05,3.442e-05,1.6108e-05,1.7402e-05,1.9148e-05,1.8274e-05,1.7484e-05,2.03e-05,2.608e-05,2.332e-05,1.9656e-05,2.064e-05,1.7238e-05,2.608e-05,3.728e-06,3.11e-05,4.014e-05,0,3.574e-05,2.742e-05,2.738e-05,2.214e-05
752,2.93e-05,3.408e-05,4.346e-05,1.323e-06,1.3368e-05,3.054e-05,1.1124e-05,1.882e-05,1.5526e-05,2.596e-05,5.6e-05,5.644e-05,3.878e-05,6.116e-05,4.1e-05,4.732e-05,2.942e-05,5.808e-05,5.154e-05,3.844e-05,1.2678e-05,1.5348e-05,1.9086e-05,2.036e-05,1.9234e-05,1.6718e-05,1.8238e-05,2.442e-05,1.8408e-05,1.7076e-05,1.6362e-05,5.914e-06,1.422e-05,1.922e-05,4.714e-05,0,4.77e-05,3.384e-05,2.908e-05,4.206e-05
754,2.456e-05,3.788e-05,3.508e-05,9.54e-06,1.7304e-05,1.9596e-05,2.132e-05,1.6672e-05,1.8446e-05,3.534e-05,6.09e-05,5.214e-05,4e-05,6.986e-05,4.304e-05,4.072e-05,3.048e-05,5.928e-05,5.32e-05,3.64e-05,1.3464e-05,1.4738e-05,1.9534e-05,2.08e-05,1.5564e-05,1.8878e-05,1.986e-05,2.23e-05,2.24e-05,1.725e-05,1.7932e-05,3.278e-05,2.1e-05,2.006e-05,5.07e-05,0,3.352e-05,2.242e-05,3.758e-05,6.798e-05
756,1.9884e-05,3.36e-05,2.906e-05,3.542e-06,1.4204e-05,1.9488e-05,1.4072e-05,1.3248e-05,1.2264e-05,3.262e-05,5.752e-05,5.906e-05,4.13e-05,7.1e-05,4.66e-05,5.542e-05,4e-05,5.162e-05,5.518e-05,4.164e-05,1.0684e-05,1.266e-05,1.925e-05,2.022e-05,1.882e-05,1.5352e-05,2.092e-05,2.236e-05,2.374e-05,2.014e-05,1.0982e-05,1.535e-05,2.888e-06,2.322e-05,4.86e-05,0,2.23e-05,3.964e-05,3.932e-05,5.498e-05
758,9.416e-06,2.502e-05,2.344e-05,0,1.8778e-05,1.4862e-05,2.738e-05,3.016e-05,2.656e-05,3.756e-05,6.602e-05,4.67e-05,4.968e-05,6.694e-05,4.066e-05,5.17e-05,4.48e-05,5.446e-05,5.456e-05,4.72e-05,1.3562e-05,1.1818e-05,1.8486e-05,1.8476e-05,1.8002e-05,2.084e-05,1.9412e-05,2.694e-05,2.164e-05,1.9326e-05,8.334e-06,1.855e-05,6.364e-06,2.992e-05,6.138e-05,0,2.078e-05,5.286e-05,3.812e-05,4.772e-05
760,1.5592e-05,3.23e-05,2.83e-05,0,2.772e-05,1.8898e-05,3.148e-05,2.098e-05,2.912e-05,2.964e-05,5.692e-05,5.45e-05,4.896e-05,6.386e-05,4.298e-05,5.772e-05,4.088e-05,5.484e-05,5.862e-05,4.86e-05,1.3058e-05,1.0402e-05,2.036e-05,1.5602e-05,1.6602e-05,1.5198e-05,1.6364e-05,2.322e-05,2.612e-05,1.7918e-05,1.6264e-05,3.178e-05,2.076e-06,2.744e-05,5.588e-05,5.952e-06,9.222e-06,3.124e-05,5.29e-05,5.342e-05
762,3.766e-05,3.438e-05,3.038e-05,0,2.656e-05,9.664e-06,3.568e-05,3.846e-05,1.4886e-05,3.624e-05,6.484e-05,5.726e-05,5.538e-05,7.148e-05,3.37e-05,5.924e-05,4.942e-05,5.552e-05,6.446e-05,4.796e-05,1.7366e-05,1.4274e-05,2.324e-05,1.185e-05,1.6738e-05,1.6836e-05,1.5886e-05,2.63e-05,2.404e-05,1.8316e-05,2.146e-05,3.254e-05,2.196e-05,1.5036e-05,6.662e-05,1.1428e-05,6.322e-06,3.302e-05,5.952e-05,6.932e-05
764,4.956e-05,2.824e-05,2.168e-05,0,3.024e-05,7.302e-06,4.664e-05,3.696e-05,1.1918e-05,3.47e-05,5.902e-05,6.086e-05,6.652e-05,7.146e-05,4.412e-05,6.604e-05,4.12e-05,6.242e-05,5.476e-05,4.68e-05,1.854e-05,1.6348e-05,1.717e-05,1.5458e-05,1.7392e-05,1.9852e-05,2.244e-05,2.712e-05,2.422e-05,1.7718e-05,9.55e-06,3.746e-05,1.7478e-05,1.6836e-05,8.066e-05,2.626e-05,2.086e-06,2.282e-05,5.946e-05,6.542e-05
766,6.346e-05,3.726e-05,1.723e-05,0,2.248e-05,2.804e-05,4.262e-05,4.598e-05,7.316e-06,3.896e-05,6.7e-05,6.952e-05,5.844e-05,6.704e-05,5.156e-05,7.224e-05,4.98e-05,6.164e-05,5.958e-05,6.004e-05,1.1956e-05,1.4816e-05,1.528e-05,1.4064e-05,1.7402e-05,2.15e-05,2.266e-05,2.63e-05,2.65e-05,1.8748e-05,2.082e-05,4.62e-05,2.736e-06,3.552e-05,8.704e-05,3.244e-05,0,3.226e-05,7.44e-05,8.204e-05
768,5.16e-05,3.124e-05,2.406e-05,1.1208e-07,1.8922e-05,3.044e-05,4.258e-05,3.932e-05,2.67e-05,3.16e-05,6.11e-05,4.586e-05,5.596e-05,7.424e-05,3.942e-05,6.928e-05,4.78e-05,5.09e-05,5.248e-05,5.198e-05,1.6064e-05,1.1428e-05,1.9644e-05,1.385e-05,1.834e-05,1.7548e-05,1.511e-05,3.076e-05,2.308e-05,1.629e-05,4.808e-05,3.052e-05,6.084e-07,2.61e-05,7.29e-05,4.768e-05,0,4.462e-05,8.074e-05,7.896e-05
770,6.6e-05,4.484e-05,9.044e-06,7.568e-06,8.514e-06,2.496e-05,5.718e-05,4.806e-05,2.658e-05,3.944e-05,7.364e-05,5.218e-05,5.71e-05,6.282e-05,6.014e-05,6.586e-05,7.082e-05,6.088e-05,6.384e-05,5.23e-05,1.4402e-05,1.3984e-05,1.5984e-05,9.556e-06,1.5346e-05,1.689e-05,1.5722e-05,3.06e-05,1.988e-05,1.5888e-05,5.086e-05,6.822e-05,1.6066e-05,5.682e-05,7.412e-05,2.96e-05,0,4.876e-05,8.294e-05,9.434e-05
772,7.232e-05,4.82e-05,2.688e-05,1.3144e-05,1.3686e-05,3.348e-05,6.7e-05,4.008e-05,3.012e-05,4.064e-05,6.328e-05,5.708e-05,5.674e-05,6.21e-05,5.628e-05,6.674e-05,7.608e-05,5.488e-05,6.438e-05,7.932e-05,1.4882e-05,2.052e-05,8.616e-06,1.7414e-05,1.6366e-05,1.4708e-05,1.7296e-05,3.22e-05,2.21e-05,1.5044e-05,6.834e-05,6.658e-05,1.7312e-05,5.146e-05,6.722e-05,6.416e-05,0,5.472e-05,8.732e-05,0.00011644
774,7.492e-05,3.12e-05,3.088e-05,4.368e-06,1.2624e-05,1.5972e-05,7.348e-05,4.948e-05,2.338e-05,4.866e-05,6.42e-05,5.584e-05,7.006e-05,7.404e-05,7.306e-05,6.748e-05,7.866e-05,4.648e-05,4.352e-05,6.1e-05,2.164e-05,2.108e-05,1.552e-05,1.5982e-05,1.672e-05,1.5672e-05,2.414e-05,2.866e-05,1.668e-05,2.222e-05,7.214e-05,7.278e-05,3.838e-05,5.584e-05,8.446e-05,7.944e-05,1.2214e-05,6.658e-05,9.69e-05,0.00011554
776,0.00010242,2.852e-05,2.47e-05,1.7148e-06,1.4678e-05,2.586e-05,6.622e-05,3.504e-05,2.888e-05,4.214e-05,7.388e-05,4.73e-05,6.058e-05,5.232e-05,6.636e-05,8.47e-05,8.598e-05,3.772e-05,6.392e-05,6.754e-05,2.45e-05,2.2e-05,1.4e-05,1.3996e-05,1.7594e-05,2.086e-05,2.622e-05,2.106e-05,1.9812e-05,2.052e-05,7.506e-05,0.0001096,4.946e-05,9.41e-05,8.34e-05,7.07e-05,7.788e-06,7.55e-05,0.00011688,0.00011704
778,9.528e-05,4.804e-05,3.63e-05,1.944e-05,1.8176e-05,3.974e-05,7.176e-05,5.056e-05,6.64e-05,3.544e-05,7.1e-05,4.672e-05,7.748e-05,5.94e-05,6.192e-05,8.44e-05,8.256e-05,3.24e-05,4.838e-05,7.136e-05,2.792e-05,2.016e-05,3.272e-06,1.9744e-05,1.949e-05,2.526e-05,2.316e-05,2.43e-05,2.646e-05,2.108e-05,0.00012688,8.63e-05,3.868e-05,7.668e-05,0.00012042,9.262e-05,1.0274e-05,6.8e-05,0.00010772,0.0001278
780,8.16e-05,2.898e-05,4.364e-05,3.088e-05,3.396e-05,2.85e-05,7.518e-05,3.012e-05,4.526e-05,2.982e-05,7.472e-05,3.462e-05,8.838e-05,5.288e-05,6.352e-05,8.22e-05,0.00010398,5.058e-05,4.206e-05,7.264e-05,2.464e-05,2.906e-05,1.0076e-05,1.6266e-05,1.7712e-05,2.386e-05,2.604e-05,1.5094e-05,1.9344e-05,2.424e-05,0.00011392,0.00010164,3.486e-05,0.00011792,0.0001008,0.000121,2.384e-05,9.448e-05,0.00011218,0.00013916
