Wavelength [nm],Background (Mel),Modulation (Mel),Background (LMS),Modulation (LMS)380,8.51e-06,1.0374e-05,1.3488e-05,1.501e-05,1.7442e-05,8.986e-06,7.558e-06,7.976e-06,7.24e-06,5.69e-06,1.0606e-05,1.2888e-05,1.1632e-05,7.136e-06,9.938e-06,9.148e-06,1.06e-05,9.526e-06,1.2616e-05,1.252e-05,3.364e-06,3.1e-06,5.474e-06,5.588e-06,5.078e-06,4.976e-06,4.092e-06,3.718e-06,5.046e-06,2.994e-06,1.6904e-05,2.448e-05,2.462e-05,1.828e-05,1.6928e-05,2.61e-05,2.49e-05,2.768e-05,2.292e-05,2.426e-05
382,1.178e-05,1.0164e-05,9.266e-06,1.001e-05,1.4754e-05,6.024e-06,5.02e-06,6.028e-06,1.2736e-05,4.688e-06,1.1518e-05,8.814e-06,1.188e-05,9.572e-06,1.1734e-05,1.0274e-05,7.554e-06,8.25e-06,1.5864e-05,1.1918e-05,2.776e-06,4.594e-06,5.584e-06,4.712e-06,5.68e-06,5.094e-06,4.164e-06,4.566e-06,4.266e-06,4.03e-06,1.5636e-05,2.076e-05,2.376e-05,1.7424e-05,1.5478e-05,2.21e-05,1.6366e-05,2.936e-05,2.146e-05,2.128e-05
384,7.078e-06,8.364e-06,1.1284e-05,8.218e-06,1.0008e-05,5.742e-06,3.292e-06,7.204e-06,5.388e-06,5.158e-06,1.0906e-05,1.1752e-05,1.1126e-05,9.132e-06,1.168e-05,9.39e-06,6.716e-06,7.83e-06,1.4032e-05,1.1578e-05,3.606e-06,4.134e-06,6.15e-06,4.964e-06,5.312e-06,5.514e-06,3.926e-06,5.72e-06,3.638e-06,4.412e-06,1.7212e-05,1.744e-05,1.8806e-05,1.3706e-05,1.7188e-05,1.9196e-05,2.466e-05,2.356e-05,2.644e-05,1.8624e-05
386,5.342e-06,1.0328e-05,9.282e-06,8.6e-06,7.272e-06,5.662e-06,4.726e-06,1.0582e-05,4.88e-06,5.958e-06,1.1304e-05,1.1496e-05,9.552e-06,9.234e-06,1.154e-05,8.984e-06,8.038e-06,8.816e-06,1.3924e-05,1.13e-05,3.9e-06,3.342e-06,5.76e-06,4.522e-06,6.71e-06,4.854e-06,4.904e-06,4.864e-06,2.872e-06,4.594e-06,1.5786e-05,2.27e-05,2.312e-05,1.8184e-05,2.216e-05,2.306e-05,2.058e-05,2.178e-05,2.374e-05,1.8364e-05
388,6.836e-06,5.952e-06,8.42e-06,8.374e-06,9.034e-06,5.676e-06,6.62e-06,1.0406e-05,7.57e-06,6.3e-06,8.916e-06,1.1596e-05,1.0624e-05,9.164e-06,9.916e-06,9.584e-06,8.094e-06,9.324e-06,1.4522e-05,1.0564e-05,3.028e-06,2.936e-06,5.386e-06,4.344e-06,6.422e-06,5.886e-06,4.53e-06,4.426e-06,3.374e-06,5.596e-06,1.578e-05,2.244e-05,2.472e-05,1.9298e-05,1.3646e-05,2.584e-05,1.9918e-05,2.072e-05,2.034e-05,1.9884e-05
390,4.23e-06,5.102e-06,6.13e-06,1.2364e-05,8.49e-06,6.094e-06,3.18e-06,4.638e-06,5.67e-06,4.046e-06,1.0168e-05,1.0628e-05,1.1424e-05,1.1506e-05,1.0766e-05,1.0542e-05,8.5e-06,1.0162e-05,1.4622e-05,9.652e-06,3.33e-06,3.364e-06,4.154e-06,4.2e-06,5.84e-06,5.766e-06,4.9e-06,5.082e-06,3.068e-06,5.662e-06,1.4914e-05,2.044e-05,2.22e-05,1.6712e-05,1.4384e-05,2.344e-05,1.8476e-05,1.9412e-05,2.106e-05,2.444e-05
392,5.224e-06,9.93e-06,7.262e-06,8.644e-06,1.0562e-05,4.902e-06,3.82e-06,6.434e-06,3.63e-06,3.554e-06,1.0958e-05,8.262e-06,1.1362e-05,1.39e-05,1.1e-05,1.2616e-05,9.818e-06,1.0476e-05,1.3686e-05,1.0854e-05,4.816e-06,4.416e-06,4.926e-06,3.9e-06,5.188e-06,5.182e-06,4.19e-06,4.368e-06,2.638e-06,5.464e-06,1.566e-05,1.7434e-05,1.9014e-05,1.5094e-05,1.6628e-05,1.4748e-05,1.845e-05,2.066e-05,1.6998e-05,1.6848e-05
394,4.46e-06,8.56e-06,7.572e-06,6.972e-06,1.0468e-05,6.088e-06,2.752e-06,5.8e-06,2.066e-06,5.6e-06,1.1566e-05,1.1822e-05,1.0458e-05,1.4068e-05,1.048e-05,9.124e-06,8.562e-06,1.1238e-05,1.4118e-05,9.574e-06,4.062e-06,5.194e-06,4.268e-06,5.912e-06,5.794e-06,4.754e-06,2.884e-06,4.11e-06,3.876e-06,4.63e-06,1.6098e-05,2.292e-05,2.14e-05,1.35e-05,1.4156e-05,1.5612e-05,1.9244e-05,1.7896e-05,1.2432e-05,1.663e-05
396,4.616e-06,6.892e-06,5.814e-06,5.366e-06,7.83e-06,3.788e-06,5.974e-06,4.61e-06,4.936e-06,6.906e-06,1.1324e-05,1.1894e-05,1.1786e-05,1.12e-05,8.906e-06,1.0412e-05,5.514e-06,9.734e-06,1.0656e-05,9.764e-06,3.428e-06,4.538e-06,3.972e-06,5.136e-06,6.39e-06,6.058e-06,4.6e-06,4.722e-06,3.518e-06,4.532e-06,1.5362e-05,1.9476e-05,2.314e-05,1.5444e-05,1.3218e-05,1.8608e-05,1.9234e-05,1.9214e-05,1.488e-05,1.6972e-05
398,6.338e-06,7.748e-06,6.816e-06,7.962e-06,4.444e-06,6.706e-06,3.65e-06,4.884e-06,4.51e-06,8.742e-06,1.004e-05,1.1902e-05,1.2456e-05,1.2456e-05,9.668e-06,8.108e-06,5.944e-06,1.2988e-05,1.2544e-05,9.452e-06,3.284e-06,4.574e-06,4.264e-06,3.96e-06,7.482e-06,5.874e-06,4.324e-06,3.04e-06,3.26e-06,4.012e-06,1.8474e-05,1.7768e-05,1.9468e-05,1.3554e-05,1.095e-05,1.7956e-05,1.4388e-05,1.6392e-05,1.2312e-05,1.114e-05
400,5.83e-06,8.55e-06,7.112e-06,7.244e-06,5.756e-06,7.348e-06,0,6.896e-06,4.78e-06,1.0002e-05,8.978e-06,1.1558e-05,1.2996e-05,1.3578e-05,9.942e-06,1.0226e-05,6.838e-06,9.67e-06,9.882e-06,8.386e-06,4.518e-06,3.528e-06,4.2e-06,4.22e-06,6.874e-06,4.526e-06,3.846e-06,4.302e-06,3.592e-06,3.2e-06,1.526e-05,1.6172e-05,2.122e-05,1.4102e-05,1.7742e-05,1.7298e-05,1.312e-05,1.725e-05,1.2464e-05,1.072e-05
402,4.83e-06,5.154e-06,5.85e-06,7.846e-06,7.45e-06,7.14e-06,2.452e-06,7.452e-06,4.394e-06,8.574e-06,8.428e-06,1.1032e-05,1.1878e-05,1.399e-05,6.266e-06,1.1066e-05,4.526e-06,1.0882e-05,8.21e-06,7.162e-06,3.76e-06,3.956e-06,4.342e-06,4.86e-06,5.378e-06,4.158e-06,3.776e-06,3.646e-06,3.964e-06,3.748e-06,1.7874e-05,1.465e-05,1.69e-05,1.441e-05,2.188e-05,1.8796e-05,1.5868e-05,1.6912e-05,1.5884e-05,9.54e-06
404,2.458e-06,6.304e-06,7.31e-06,6.776e-06,5.812e-06,4.906e-06,5.65e-06,6.846e-06,3.942e-06,9.368e-06,8.45e-06,1.2682e-05,1.269e-05,1.301e-05,6.274e-06,8.994e-06,5.026e-06,1.033e-05,7.688e-06,9.046e-06,3.096e-06,4.374e-06,4.062e-06,4.118e-06,5.832e-06,5.304e-06,3.99e-06,4.15e-06,3.526e-06,3.072e-06,1.7556e-05,1.603e-05,1.8086e-05,1.6842e-05,1.8588e-05,1.7326e-05,1.6418e-05,1.5826e-05,1.3022e-05,8.084e-06
406,6.226e-06,4.572e-06,7.498e-06,4.602e-06,5.738e-06,3.37e-06,4.618e-06,7.312e-06,5.296e-06,9.488e-06,6.242e-06,1.093e-05,1.4164e-05,1.2712e-05,7.51e-06,1.0104e-05,8.136e-06,9.596e-06,7.642e-06,8.68e-06,3.252e-06,4.2e-06,3.494e-06,4.14e-06,5.784e-06,5.04e-06,4.738e-06,3.668e-06,3.412e-06,2.834e-06,1.5334e-05,1.642e-05,1.585e-05,1.646e-05,1.8162e-05,1.571e-05,1.2652e-05,1.4554e-05,1.2694e-05,8.168e-06
408,7.26e-06,4.704e-06,8.828e-06,5.236e-06,6.474e-06,4.406e-06,5.764e-06,1.0518e-05,5.894e-06,9.734e-06,9.07e-06,1.0838e-05,1.2486e-05,1.2394e-05,5.74e-06,1.0686e-05,6.966e-06,1.1002e-05,8.218e-06,9.082e-06,3.356e-06,3.402e-06,3.186e-06,4e-06,5.928e-06,4.92e-06,3.848e-06,3.352e-06,3.772e-06,2.806e-06,1.7398e-05,1.4838e-05,1.4092e-05,1.5278e-05,1.9158e-05,1.67e-05,1.358e-05,1.7738e-05,1.4032e-05,9.716e-06
410,6.118e-06,6.216e-06,9.388e-06,6.306e-06,5.69e-06,7.776e-06,6.83e-06,1.0114e-05,6.406e-06,8.81e-06,9.392e-06,1.0704e-05,1.107e-05,1.3126e-05,6.728e-06,1.017e-05,6.378e-06,1.0574e-05,7.852e-06,9.146e-06,3.704e-06,3.246e-06,3.574e-06,4.222e-06,5.404e-06,4.58e-06,3.78e-06,3.546e-06,3.492e-06,2.658e-06,2.028e-05,1.3164e-05,1.4456e-05,1.7858e-05,2.418e-05,1.8806e-05,1.6098e-05,1.4816e-05,1.5168e-05,7.038e-06
412,7.628e-06,1.0674e-05,7.948e-06,9.028e-06,9.302e-06,7.89e-06,5.92e-06,1.1542e-05,5.842e-06,1.131e-05,9.352e-06,9.398e-06,1.2468e-05,1.1546e-05,6.412e-06,1.0278e-05,7.754e-06,1.0228e-05,6.864e-06,9.59e-06,3.834e-06,4.226e-06,3.008e-06,4.064e-06,4.41e-06,4.928e-06,2.488e-06,4.302e-06,3.562e-06,3.074e-06,1.9298e-05,1.7498e-05,2.03e-05,1.9086e-05,2.282e-05,1.6512e-05,1.7314e-05,1.8056e-05,1.352e-05,1.0872e-05
414,1.2396e-05,1.269e-05,1.1412e-05,1.1828e-05,1.106e-05,1.2814e-05,1.2052e-05,1.3018e-05,1.111e-05,1.4514e-05,8.828e-06,1.1384e-05,1.3706e-05,1.522e-05,9.338e-06,1.22e-05,8.458e-06,1.2128e-05,5.182e-06,9.42e-06,4.584e-06,4.274e-06,3.486e-06,3.846e-06,4.91e-06,5.11e-06,4.222e-06,3.362e-06,3.886e-06,4.5e-06,2.614e-05,2.012e-05,2.4e-05,2.186e-05,2.852e-05,2.528e-05,2.454e-05,2.34e-05,1.9936e-05,1.7656e-05
416,2.81e-05,2.558e-05,2.728e-05,2.622e-05,2.574e-05,2.444e-05,2.532e-05,2.672e-05,2.348e-05,2.71e-05,1.3784e-05,1.5466e-05,1.6896e-05,1.7188e-05,1.103e-05,1.4358e-05,1.1772e-05,1.4422e-05,1.0142e-05,1.4152e-05,4.532e-06,4.734e-06,4.986e-06,4.568e-06,5.436e-06,6.412e-06,5.166e-06,4.08e-06,4.782e-06,4.552e-06,4.352e-05,3.95e-05,3.908e-05,4.394e-05,4.836e-05,4.086e-05,4.11e-05,4.13e-05,3.972e-05,3.52e-05
418,6.278e-05,6.07e-05,6.06e-05,6.014e-05,5.988e-05,5.73e-05,5.888e-05,5.82e-05,5.644e-05,5.826e-05,2.222e-05,2.518e-05,2.678e-05,2.484e-05,2.01e-05,2.496e-05,2.038e-05,2.4e-05,1.9038e-05,2.274e-05,7.088e-06,6.97e-06,6.308e-06,6.224e-06,6.424e-06,7.412e-06,6.41e-06,5.936e-06,5.694e-06,5.574e-06,9.104e-05,8.444e-05,8.482e-05,8.844e-05,9.254e-05,8.238e-05,8.156e-05,8.186e-05,7.882e-05,7.73e-05
420,0.00011898,0.0001182,0.00011858,0.0001193,0.00011676,0.00011232,0.00011502,0.00011468,0.00011396,0.00011568,3.87e-05,4.076e-05,4.17e-05,4.12e-05,3.566e-05,3.984e-05,3.63e-05,4.024e-05,3.384e-05,3.754e-05,9.748e-06,9.234e-06,9.012e-06,9.576e-06,9.366e-06,9.78e-06,9.244e-06,8.59e-06,8.436e-06,8.134e-06,0.0001698,0.00016126,0.00016146,0.00016644,0.00016666,0.00016064,0.00015704,0.00015968,0.00015354,0.0001564
422,0.00019132,0.00019244,0.00019172,0.0001913,0.00019048,0.00018314,0.00018874,0.00018786,0.0001866,0.00018806,5.942e-05,5.94e-05,6.116e-05,6.114e-05,5.62e-05,6.038e-05,5.76e-05,5.894e-05,5.404e-05,5.832e-05,1.337e-05,1.308e-05,1.3386e-05,1.3488e-05,1.3354e-05,1.3598e-05,1.3046e-05,1.2384e-05,1.2578e-05,1.1998e-05,0.0002784,0.0002684,0.0002718,0.0002758,0.0002748,0.0002696,0.0002654,0.00027,0.0002628,0.0002626
424,0.0002654,0.0002628,0.0002648,0.000263,0.0002622,0.0002568,0.0002594,0.00026,0.0002604,0.0002612,7.868e-05,7.784e-05,7.974e-05,7.97e-05,7.734e-05,8.152e-05,7.712e-05,8.006e-05,7.566e-05,8.046e-05,1.8368e-05,1.8144e-05,1.7694e-05,1.8042e-05,1.8338e-05,1.8274e-05,1.8434e-05,1.7184e-05,1.8138e-05,1.6742e-05,0.0004166,0.0004084,0.0004114,0.0004156,0.000415,0.0004036,0.000404,0.0004056,0.0004014,0.0004006
426,0.0003306,0.0003294,0.0003296,0.000329,0.0003296,0.000327,0.00033,0.0003304,0.0003294,0.0003294,9.87e-05,9.708e-05,9.76e-05,0.00010022,9.676e-05,9.986e-05,9.61e-05,9.816e-05,9.59e-05,9.936e-05,2.524e-05,2.418e-05,2.468e-05,2.518e-05,2.452e-05,2.452e-05,2.52e-05,2.294e-05,2.474e-05,2.366e-05,0.0005952,0.0005888,0.0005894,0.0005962,0.000595,0.0005814,0.0005824,0.0005822,0.0005814,0.0005808
428,0.0003898,0.00039,0.0003898,0.0003894,0.0003904,0.0003878,0.0003914,0.0003888,0.0003886,0.0003904,0.00011684,0.00011568,0.00011666,0.00011754,0.00011504,0.00011706,0.00011398,0.00011552,0.00011326,0.0001183,3.228e-05,3.176e-05,3.212e-05,3.192e-05,3.152e-05,3.17e-05,3.22e-05,3.152e-05,3.156e-05,3.086e-05,0.0007992,0.0007938,0.0007936,0.0007982,0.0008,0.0007874,0.0007872,0.000787,0.0007852,0.0007834
430,0.0004354,0.0004372,0.0004348,0.0004344,0.0004338,0.000433,0.0004348,0.0004362,0.0004348,0.0004358,0.00012938,0.00013022,0.00012986,0.00012948,0.0001278,0.00012966,0.0001278,0.00012968,0.0001273,0.00013054,3.86e-05,3.826e-05,3.832e-05,3.854e-05,3.81e-05,3.818e-05,3.892e-05,3.718e-05,3.796e-05,3.784e-05,0.0009786,0.000974,0.0009738,0.000978,0.00098,0.0009696,0.0009686,0.0009674,0.0009676,0.0009678
432,0.000457,0.0004578,0.000456,0.0004558,0.0004556,0.0004562,0.0004582,0.000459,0.0004604,0.0004596,0.00013654,0.00013508,0.00013526,0.00013686,0.0001346,0.0001375,0.00013564,0.00013634,0.00013484,0.0001387,4.396e-05,4.386e-05,4.358e-05,4.382e-05,4.334e-05,4.334e-05,4.442e-05,4.288e-05,4.342e-05,4.344e-05,0.0010974,0.0010926,0.0010932,0.001097,0.0010988,0.001094,0.0010952,0.0010932,0.0010928,0.0010956
434,0.0004364,0.0004366,0.0004358,0.0004362,0.0004364,0.0004394,0.0004426,0.0004424,0.0004424,0.0004432,0.00013218,0.00012956,0.00013142,0.00013198,0.00013076,0.00013424,0.0001329,0.00013294,0.00013128,0.0001352,4.686e-05,4.672e-05,4.706e-05,4.65e-05,4.654e-05,4.624e-05,4.8e-05,4.59e-05,4.666e-05,4.692e-05,0.0011364,0.001133,0.0011322,0.0011378,0.001136,0.0011416,0.001142,0.001141,0.0011412,0.0011424
436,0.0003636,0.0003626,0.0003628,0.0003634,0.0003648,0.0003718,0.0003746,0.0003726,0.0003738,0.000373,0.0001128,0.00011048,0.00011298,0.0001132,0.00011238,0.00011624,0.00011494,0.00011546,0.00011292,0.00011694,4.716e-05,4.734e-05,4.718e-05,4.66e-05,4.666e-05,4.736e-05,4.83e-05,4.628e-05,4.712e-05,4.694e-05,0.0010952,0.0010918,0.0010926,0.001096,0.001096,0.0011064,0.0011056,0.0011026,0.001105,0.0011048
438,0.0002556,0.0002554,0.000255,0.0002556,0.0002556,0.0002662,0.000269,0.000266,0.0002666,0.0002672,8.372e-05,8.302e-05,8.444e-05,8.526e-05,8.412e-05,8.802e-05,8.79e-05,8.738e-05,8.606e-05,8.914e-05,4.502e-05,4.572e-05,4.506e-05,4.516e-05,4.468e-05,4.53e-05,4.616e-05,4.478e-05,4.57e-05,4.508e-05,0.00099,0.0009882,0.0009894,0.0009904,0.0009882,0.001005,0.0010056,0.0009998,0.0010038,0.0010056
440,0.00014718,0.00014716,0.00014664,0.0001476,0.0001477,0.00015514,0.00015764,0.00015596,0.00015756,0.0001551,5.846e-05,5.726e-05,5.748e-05,5.778e-05,5.834e-05,6.144e-05,5.906e-05,5.99e-05,5.978e-05,6.146e-05,4.276e-05,4.316e-05,4.284e-05,4.234e-05,4.206e-05,4.29e-05,4.346e-05,4.238e-05,4.276e-05,4.248e-05,0.000832,0.0008324,0.0008318,0.0008358,0.0008324,0.0008486,0.0008522,0.0008452,0.0008502,0.0008516
442,7.996e-05,7.966e-05,7.952e-05,8.074e-05,8.168e-05,8.272e-05,8.636e-05,8.396e-05,8.502e-05,8.354e-05,4.25e-05,4.202e-05,4.148e-05,4.28e-05,4.27e-05,4.492e-05,4.374e-05,4.352e-05,4.276e-05,4.414e-05,3.898e-05,3.95e-05,3.914e-05,3.874e-05,3.85e-05,3.916e-05,4.046e-05,3.878e-05,3.932e-05,3.918e-05,0.000627,0.000626,0.000627,0.0006284,0.000629,0.000642,0.000645,0.000642,0.0006454,0.0006464
444,6.096e-05,6.036e-05,5.954e-05,6.044e-05,6.084e-05,5.898e-05,6.336e-05,5.932e-05,6.228e-05,6.104e-05,3.896e-05,3.926e-05,3.74e-05,3.992e-05,3.87e-05,3.948e-05,3.962e-05,3.884e-05,3.914e-05,4.04e-05,3.596e-05,3.65e-05,3.612e-05,3.528e-05,3.554e-05,3.602e-05,3.722e-05,3.598e-05,3.612e-05,3.584e-05,0.0004268,0.0004278,0.0004274,0.0004268,0.0004282,0.0004458,0.0004464,0.0004438,0.000447,0.00045
446,5.714e-05,5.708e-05,5.692e-05,5.87e-05,5.774e-05,5.716e-05,6.018e-05,5.704e-05,5.814e-05,5.558e-05,4.028e-05,3.916e-05,3.822e-05,3.97e-05,4.072e-05,4.018e-05,4.142e-05,3.994e-05,4.146e-05,4.132e-05,3.408e-05,3.432e-05,3.406e-05,3.402e-05,3.4e-05,3.388e-05,3.558e-05,3.396e-05,3.442e-05,3.39e-05,0.0002596,0.000261,0.0002608,0.0002612,0.0002594,0.0002746,0.000275,0.0002736,0.0002742,0.0002772
448,6.002e-05,5.934e-05,5.918e-05,6.02e-05,6.194e-05,5.954e-05,6.172e-05,5.972e-05,6.068e-05,5.896e-05,4.322e-05,4.16e-05,4.038e-05,4.294e-05,4.286e-05,4.322e-05,4.452e-05,4.34e-05,4.408e-05,4.288e-05,3.51e-05,3.512e-05,3.478e-05,3.504e-05,3.444e-05,3.454e-05,3.588e-05,3.42e-05,3.48e-05,3.46e-05,0.00016032,0.0001608,0.00016144,0.00016138,0.00015848,0.00016622,0.00016722,0.00016528,0.00016744,0.00017038
450,6.422e-05,6.302e-05,6.22e-05,6.398e-05,6.584e-05,6.382e-05,6.598e-05,6.376e-05,6.42e-05,6.25e-05,4.62e-05,4.59e-05,4.33e-05,4.662e-05,4.582e-05,4.664e-05,4.82e-05,4.688e-05,4.642e-05,4.71e-05,3.75e-05,3.806e-05,3.744e-05,3.762e-05,3.722e-05,3.712e-05,3.844e-05,3.704e-05,3.822e-05,3.738e-05,0.0001234,0.00012448,0.00012472,0.00012704,0.00012218,0.0001258,0.00012582,0.0001258,0.0001288,0.00013078
452,6.596e-05,6.404e-05,6.486e-05,6.67e-05,6.896e-05,6.71e-05,6.814e-05,6.772e-05,6.682e-05,6.474e-05,4.934e-05,4.77e-05,4.588e-05,4.836e-05,4.862e-05,4.736e-05,4.986e-05,4.872e-05,4.91e-05,4.814e-05,4.014e-05,4.036e-05,4.036e-05,4.01e-05,3.946e-05,4.006e-05,4.086e-05,4.028e-05,4.062e-05,3.974e-05,0.00011448,0.0001154,0.00011698,0.00011768,0.00010864,0.00011648,0.0001171,0.0001155,0.00012002,0.00011964
454,6.542e-05,6.424e-05,6.596e-05,6.664e-05,6.724e-05,6.604e-05,6.736e-05,6.586e-05,6.696e-05,6.39e-05,4.836e-05,4.774e-05,4.714e-05,4.85e-05,4.836e-05,4.766e-05,4.994e-05,4.916e-05,4.978e-05,4.898e-05,4.154e-05,4.166e-05,4.108e-05,4.164e-05,4.058e-05,4.094e-05,4.198e-05,4.182e-05,4.182e-05,4.096e-05,0.00011218,0.00011276,0.00011272,0.00011394,0.00010758,0.00011108,0.00011172,0.00011104,0.00011556,0.00011838
456,6.59e-05,6.572e-05,6.644e-05,6.612e-05,6.896e-05,6.582e-05,6.646e-05,6.534e-05,6.8e-05,6.472e-05,5.07e-05,5.03e-05,4.578e-05,5.03e-05,4.868e-05,4.984e-05,5.248e-05,4.976e-05,5.048e-05,4.992e-05,4.284e-05,4.32e-05,4.306e-05,4.264e-05,4.252e-05,4.244e-05,4.422e-05,4.294e-05,4.308e-05,4.288e-05,0.00010956,0.0001123,0.0001138,0.00011308,0.00010502,0.00011092,0.00011192,0.00010706,0.0001157,0.00011656
458,6.674e-05,6.716e-05,6.788e-05,6.918e-05,7.32e-05,6.918e-05,6.774e-05,6.824e-05,6.87e-05,6.634e-05,5.326e-05,5.204e-05,5.042e-05,5.108e-05,5.066e-05,5.116e-05,5.364e-05,5.214e-05,5.266e-05,5.244e-05,4.612e-05,4.6e-05,4.58e-05,4.61e-05,4.502e-05,4.562e-05,4.614e-05,4.608e-05,4.554e-05,4.53e-05,0.00011034,0.00011408,0.00011566,0.00011454,0.00010656,0.00011332,0.0001114,0.00011046,0.00011592,0.00011892
460,6.966e-05,6.928e-05,7e-05,7.226e-05,7.334e-05,7.252e-05,7.044e-05,6.926e-05,7.004e-05,6.886e-05,5.436e-05,5.39e-05,5.212e-05,5.392e-05,5.436e-05,5.356e-05,5.598e-05,5.39e-05,5.472e-05,5.524e-05,4.906e-05,4.89e-05,4.86e-05,4.85e-05,4.858e-05,4.828e-05,4.888e-05,4.902e-05,4.848e-05,4.848e-05,0.000114,0.00011662,0.00011788,0.0001162,0.00010546,0.0001151,0.00011394,0.00011272,0.00011688,0.00011866
462,7.346e-05,7.246e-05,7.508e-05,7.478e-05,7.62e-05,7.622e-05,7.33e-05,7.212e-05,7.306e-05,7.174e-05,5.656e-05,5.474e-05,5.518e-05,5.638e-05,5.682e-05,5.618e-05,5.924e-05,5.764e-05,5.622e-05,5.71e-05,5.204e-05,5.2e-05,5.132e-05,5.132e-05,5.16e-05,5.136e-05,5.196e-05,5.25e-05,5.234e-05,5.23e-05,0.00011554,0.00011758,0.00012004,0.00011694,0.00010846,0.00011564,0.00011732,0.00011404,0.00011782,0.00011984
464,7.67e-05,7.66e-05,7.818e-05,7.81e-05,7.982e-05,7.962e-05,7.852e-05,7.682e-05,7.656e-05,7.486e-05,5.984e-05,5.618e-05,5.818e-05,5.79e-05,5.764e-05,5.846e-05,6.072e-05,6.024e-05,5.956e-05,5.86e-05,5.54e-05,5.576e-05,5.496e-05,5.524e-05,5.544e-05,5.442e-05,5.542e-05,5.6e-05,5.556e-05,5.552e-05,0.0001162,0.00012118,0.00012172,0.00011906,0.00011292,0.0001177,0.00011882,0.00011778,0.00012084,0.00012074
466,8.174e-05,8.084e-05,8.078e-05,8.256e-05,8.628e-05,8.526e-05,8.302e-05,8.108e-05,8.222e-05,8.068e-05,6.258e-05,5.938e-05,6.098e-05,6.038e-05,5.948e-05,6.05e-05,6.364e-05,6.176e-05,6.104e-05,6.094e-05,5.992e-05,6.044e-05,5.966e-05,6.004e-05,6e-05,5.952e-05,5.98e-05,6.054e-05,6.038e-05,6.06e-05,0.00012212,0.00012562,0.00012908,0.0001243,0.00011588,0.00012362,0.00012296,0.0001242,0.00012506,0.00012602
468,8.796e-05,8.806e-05,8.9e-05,8.962e-05,9.134e-05,9.244e-05,8.89e-05,8.75e-05,8.814e-05,8.702e-05,6.498e-05,6.312e-05,6.416e-05,6.428e-05,6.506e-05,6.42e-05,6.82e-05,6.382e-05,6.474e-05,6.366e-05,6.548e-05,6.572e-05,6.514e-05,6.52e-05,6.564e-05,6.542e-05,6.542e-05,6.634e-05,6.64e-05,6.648e-05,0.00012972,0.0001311,0.00013442,0.00013264,0.00012516,0.00013216,0.00013254,0.0001318,0.00013404,0.00013498
470,8.9e-05,8.976e-05,8.908e-05,9.09e-05,9.304e-05,9.184e-05,9.036e-05,8.93e-05,8.892e-05,8.92e-05,6.296e-05,6.146e-05,6.246e-05,6.18e-05,6.356e-05,6.224e-05,6.516e-05,6.344e-05,6.47e-05,6.308e-05,6.74e-05,6.714e-05,6.696e-05,6.702e-05,6.762e-05,6.746e-05,6.742e-05,6.876e-05,6.778e-05,6.872e-05,0.00012756,0.00013308,0.00013366,0.00013178,0.0001264,0.00012872,0.0001308,0.00013178,0.00013078,0.00013228
472,8.912e-05,8.792e-05,9.068e-05,9.038e-05,9.106e-05,9.15e-05,9.072e-05,8.918e-05,8.832e-05,8.784e-05,5.992e-05,5.836e-05,6.046e-05,5.948e-05,6.158e-05,5.922e-05,6.188e-05,6.05e-05,6.014e-05,6.032e-05,6.75e-05,6.698e-05,6.692e-05,6.73e-05,6.724e-05,6.776e-05,6.752e-05,6.874e-05,6.856e-05,6.842e-05,0.00012712,0.00012908,0.00013244,0.00012818,0.00012308,0.00012574,0.00012768,0.00012924,0.00012864,0.00012882
474,8.662e-05,8.704e-05,8.776e-05,8.964e-05,8.976e-05,9.038e-05,8.936e-05,8.764e-05,8.618e-05,8.634e-05,5.776e-05,5.624e-05,5.862e-05,5.74e-05,5.872e-05,5.622e-05,6.044e-05,5.82e-05,5.786e-05,5.71e-05,6.72e-05,6.67e-05,6.666e-05,6.752e-05,6.716e-05,6.694e-05,6.732e-05,6.832e-05,6.816e-05,6.824e-05,0.00012286,0.00012436,0.00012566,0.00012624,0.00012142,0.00012132,0.00012426,0.0001267,0.00012558,0.00012422
476,8.336e-05,8.328e-05,8.376e-05,8.604e-05,8.568e-05,8.642e-05,8.45e-05,8.45e-05,8.234e-05,8.324e-05,5.458e-05,5.302e-05,5.44e-05,5.366e-05,5.5e-05,5.284e-05,5.634e-05,5.512e-05,5.378e-05,5.33e-05,6.494e-05,6.466e-05,6.456e-05,6.5e-05,6.512e-05,6.556e-05,6.498e-05,6.666e-05,6.616e-05,6.578e-05,0.00011648,0.00011746,0.00012096,0.00012024,0.00011396,0.00011504,0.00011702,0.0001204,0.0001184,0.00011676
478,8.266e-05,8.074e-05,8.25e-05,8.072e-05,8.464e-05,8.418e-05,8.29e-05,8.258e-05,8.13e-05,8.164e-05,5.346e-05,5.206e-05,5.262e-05,5.08e-05,5.278e-05,5.068e-05,5.334e-05,5.246e-05,5.102e-05,5.216e-05,6.418e-05,6.436e-05,6.41e-05,6.45e-05,6.454e-05,6.52e-05,6.488e-05,6.636e-05,6.592e-05,6.524e-05,0.00011242,0.00011354,0.00011922,0.00011388,0.00010822,0.00011302,0.00011332,0.00011614,0.00011418,0.00011292
480,8.442e-05,8.388e-05,8.576e-05,8.572e-05,8.592e-05,8.678e-05,8.57e-05,8.492e-05,8.28e-05,8.504e-05,5.506e-05,5.388e-05,5.542e-05,5.38e-05,5.55e-05,5.236e-05,5.544e-05,5.28e-05,5.244e-05,5.234e-05,6.826e-05,6.734e-05,6.788e-05,6.798e-05,6.888e-05,6.85e-05,6.89e-05,6.992e-05,6.944e-05,6.908e-05,0.00011666,0.00011502,0.0001176,0.00011662,0.00010978,0.00011378,0.00011724,0.00011802,0.00011574,0.00011334
482,9.006e-05,8.796e-05,8.978e-05,9.108e-05,9.178e-05,9.128e-05,9.096e-05,9.082e-05,8.662e-05,8.91e-05,5.898e-05,5.73e-05,5.896e-05,5.71e-05,5.716e-05,5.61e-05,5.746e-05,5.576e-05,5.628e-05,5.696e-05,7.342e-05,7.336e-05,7.312e-05,7.408e-05,7.406e-05,7.416e-05,7.316e-05,7.53e-05,7.498e-05,7.426e-05,0.00012104,0.00011834,0.00012038,0.0001209,0.0001159,0.00011576,0.00012006,0.00012434,0.00011726,0.00011778
484,8.976e-05,8.896e-05,9.094e-05,9.19e-05,8.972e-05,9.276e-05,9.108e-05,9.11e-05,8.78e-05,8.97e-05,6.288e-05,6.188e-05,6.354e-05,6.068e-05,6.292e-05,5.982e-05,6.114e-05,6.026e-05,6.112e-05,6.116e-05,7.716e-05,7.616e-05,7.634e-05,7.746e-05,7.728e-05,7.722e-05,7.666e-05,7.778e-05,7.788e-05,7.752e-05,0.00012056,0.00011826,0.00012194,0.00011902,0.00011518,0.00011822,0.0001196,0.00012338,0.0001171,0.00011756
486,8.79e-05,8.872e-05,9.004e-05,8.922e-05,8.802e-05,9.07e-05,9.022e-05,8.94e-05,8.724e-05,8.81e-05,7.366e-05,7.356e-05,7.512e-05,7.172e-05,7.356e-05,7.094e-05,7.072e-05,7.01e-05,7.044e-05,7.022e-05,8.11e-05,8.042e-05,8.076e-05,8.168e-05,8.194e-05,8.118e-05,8.03e-05,8.144e-05,8.142e-05,8.122e-05,0.00011764,0.00011546,0.00011924,0.00011758,0.00011332,0.00011394,0.00011602,0.00012052,0.0001157,0.00011322
488,8.898e-05,8.744e-05,8.982e-05,9.064e-05,8.928e-05,8.986e-05,8.922e-05,9.05e-05,8.686e-05,8.836e-05,0.00011684,0.0001185,0.00011802,0.00011662,0.00011802,0.0001121,0.0001113,0.00011078,0.00011066,0.00010972,0.00010092,0.0001004,0.00010038,0.00010144,0.00010126,9.83e-05,9.772e-05,9.942e-05,9.912e-05,9.874e-05,0.00012126,0.00011926,0.0001222,0.0001204,0.00011882,0.00011836,0.00011902,0.0001225,0.00011728,0.0001167
490,9.32e-05,9.114e-05,9.332e-05,9.588e-05,9.264e-05,9.28e-05,9.306e-05,9.578e-05,9.276e-05,9.338e-05,0.000278,0.0002786,0.000279,0.000278,0.0002796,0.0002596,0.0002578,0.0002586,0.000259,0.0002582,0.00017694,0.0001758,0.00017578,0.00017668,0.0001764,0.0001671,0.00016664,0.00016826,0.00016818,0.000168,0.0001356,0.00013388,0.00013784,0.00013412,0.00013166,0.00013306,0.00013522,0.00013798,0.00013076,0.0001316
492,9.936e-05,9.802e-05,9.9e-05,0.00010118,9.974e-05,9.944e-05,0.00010054,0.00010102,9.898e-05,9.964e-05,0.0006692,0.0006686,0.0006674,0.0006672,0.0006668,0.0006296,0.0006266,0.0006278,0.0006286,0.000629,0.000366,0.0003648,0.0003642,0.0003646,0.0003646,0.0003446,0.0003446,0.0003464,0.0003464,0.0003454,0.00016664,0.00016634,0.00016784,0.00016652,0.0001659,0.00016192,0.00016512,0.00016746,0.00016146,0.00016422
494,0.00010424,0.00010332,0.0001052,0.00010614,0.00010412,0.00010336,0.0001054,0.00010664,0.00010332,0.00010636,0.0013416,0.001342,0.001339,0.0013374,0.001338,0.0012886,0.0012848,0.0012874,0.0012872,0.0012894,0.0006938,0.0006926,0.0006916,0.0006928,0.0006912,0.0006646,0.000664,0.0006668,0.0006664,0.0006656,0.0002156,0.0002122,0.000215,0.0002124,0.0002138,0.0002102,0.000211,0.0002124,0.0002094,0.0002104
496,0.00011092,0.00011068,0.00010958,0.00011088,0.00010822,0.00010966,0.00011058,0.00011048,0.0001099,0.00010986,0.002048,0.00205,0.002046,0.002046,0.002046,0.0019964,0.0019924,0.001995,0.0019958,0.002,0.0010156,0.0010138,0.0010128,0.0010138,0.001012,0.0009884,0.0009872,0.00099,0.0009904,0.00099,0.0002588,0.000255,0.000258,0.0002528,0.0002564,0.0002532,0.0002542,0.0002548,0.0002522,0.0002548
498,0.00012636,0.00012492,0.00012582,0.00012632,0.0001249,0.00012394,0.00012512,0.00012612,0.0001235,0.00012448,0.002724,0.002724,0.002722,0.00272,0.002722,0.002678,0.002674,0.00268,0.00268,0.002688,0.0012612,0.0012602,0.001259,0.0012608,0.0012592,0.0012434,0.0012424,0.0012456,0.0012468,0.0012474,0.0002914,0.0002878,0.0002906,0.0002862,0.0002864,0.000287,0.0002882,0.0002876,0.0002846,0.0002872
500,0.00015494,0.00015302,0.00015572,0.00015588,0.00015278,0.00015148,0.00015134,0.00015334,0.0001514,0.00015322,0.003342,0.003342,0.00334,0.003338,0.003338,0.003304,0.003304,0.00331,0.003312,0.00332,0.0014166,0.0014158,0.0014146,0.0014166,0.001416,0.0014094,0.001409,0.001413,0.0014144,0.001415,0.0003106,0.0003062,0.0003114,0.0003056,0.0003066,0.000308,0.0003088,0.00031,0.0003064,0.0003086
502,0.00018746,0.0001872,0.00018776,0.00018798,0.0001854,0.00018422,0.00018486,0.0001856,0.00018508,0.00018686,0.003866,0.003866,0.003866,0.003864,0.003866,0.003844,0.003848,0.003854,0.003856,0.003864,0.0015046,0.0015038,0.001503,0.0015044,0.0015046,0.0015054,0.0015066,0.00151,0.0015118,0.0015122,0.00032,0.0003186,0.0003226,0.000316,0.0003192,0.0003216,0.000322,0.000323,0.000319,0.0003204
504,0.000214,0.0002132,0.0002144,0.0002152,0.0002112,0.0002102,0.0002128,0.0002138,0.0002128,0.000212,0.004244,0.004244,0.004244,0.004242,0.004244,0.004244,0.004246,0.004252,0.004252,0.004258,0.0015488,0.001548,0.0015474,0.001549,0.0015478,0.001556,0.0015566,0.0015594,0.0015606,0.00156,0.0003268,0.0003254,0.000329,0.0003222,0.0003274,0.0003272,0.0003288,0.0003286,0.0003258,0.0003272
506,0.000226,0.0002274,0.000226,0.0002282,0.0002244,0.0002244,0.000226,0.0002274,0.0002282,0.000228,0.004372,0.004372,0.004374,0.004372,0.004372,0.004404,0.004402,0.004404,0.004402,0.004406,0.0015274,0.0015272,0.0015264,0.0015284,0.0015274,0.0015434,0.0015418,0.001544,0.0015442,0.0015442,0.0003196,0.0003188,0.0003214,0.0003176,0.0003186,0.0003216,0.0003258,0.0003204,0.0003206,0.0003208
508,0.0002324,0.0002328,0.0002294,0.0002334,0.0002284,0.000231,0.0002312,0.0002324,0.0002316,0.0002332,0.00414,0.004136,0.004142,0.00414,0.00414,0.004204,0.0042,0.0042,0.004198,0.0042,0.0013712,0.0013718,0.0013714,0.0013726,0.0013726,0.0013998,0.0013986,0.0013996,0.0013998,0.0013988,0.0002922,0.000292,0.0002936,0.00029,0.000292,0.0002966,0.000299,0.0002952,0.000295,0.0002946
510,0.000234,0.0002342,0.0002322,0.0002346,0.0002308,0.000232,0.0002318,0.0002342,0.000234,0.0002346,0.00357,0.003566,0.003574,0.00357,0.003572,0.003658,0.003654,0.003654,0.003652,0.003654,0.0010596,0.0010608,0.0010614,0.001062,0.0010624,0.0011008,0.0010992,0.001099,0.0011,0.001099,0.0002464,0.000249,0.0002482,0.0002458,0.0002462,0.000253,0.0002518,0.0002516,0.0002522,0.0002514
512,0.0002284,0.000228,0.0002266,0.000229,0.000226,0.000228,0.000228,0.00023,0.000231,0.000231,0.00282,0.002816,0.002824,0.00282,0.00282,0.002906,0.002904,0.002906,0.002904,0.002908,0.0006796,0.0006804,0.000681,0.0006812,0.0006818,0.0007186,0.0007166,0.0007164,0.0007176,0.000718,0.0002056,0.0002064,0.0002042,0.0002032,0.0002064,0.0002096,0.0002094,0.0002078,0.0002082,0.0002096
514,0.0002128,0.0002116,0.0002092,0.0002124,0.00021,0.000212,0.0002132,0.0002138,0.000216,0.0002154,0.002076,0.002074,0.00208,0.002078,0.002076,0.00215,0.00215,0.002152,0.002152,0.002156,0.000384,0.0003846,0.0003854,0.0003856,0.0003854,0.000407,0.0004064,0.0004062,0.0004072,0.0004082,0.00017844,0.00018144,0.0001795,0.00017846,0.0001818,0.0001815,0.00018474,0.00018042,0.00018142,0.00018136
516,0.00018494,0.00018576,0.00018198,0.0001838,0.00018254,0.0001854,0.00018656,0.0001869,0.00018948,0.00018996,0.0014342,0.001433,0.0014372,0.001437,0.0014356,0.0014936,0.0014952,0.0014952,0.0014976,0.0015006,0.000243,0.0002428,0.000243,0.0002432,0.0002432,0.000251,0.0002508,0.0002502,0.0002514,0.0002518,0.00016972,0.00017092,0.00017132,0.00016912,0.00017402,0.00017078,0.00017228,0.00017154,0.00017278,0.00017196
518,0.00015878,0.00015774,0.00015712,0.00015896,0.00015664,0.00015856,0.00015714,0.00015998,0.00016046,0.00016186,0.000884,0.0008834,0.000887,0.0008854,0.0008852,0.0009282,0.0009292,0.0009298,0.00093,0.0009312,0.00019908,0.00019954,0.00019966,0.00019976,0.00019894,0.0002012,0.0002016,0.0002012,0.0002016,0.0002016,0.00016778,0.00016998,0.00016648,0.00016744,0.00016956,0.00016854,0.0001708,0.00016794,0.00017,0.0001696
520,0.00014576,0.00014624,0.00014432,0.00014522,0.00014356,0.00014532,0.00014462,0.00014556,0.00014792,0.00014666,0.0005408,0.0005406,0.0005418,0.000542,0.000541,0.0005642,0.0005648,0.000564,0.000565,0.0005652,0.00018894,0.0001892,0.0001895,0.0001889,0.00018882,0.00018968,0.00019014,0.00018918,0.00018988,0.00018956,0.00016838,0.00017028,0.00016714,0.0001677,0.00016804,0.00016864,0.00017264,0.0001676,0.0001701,0.00016818
522,0.00014306,0.00014448,0.00014268,0.00014186,0.00014108,0.00014116,0.00014142,0.000142,0.00014458,0.0001442,0.0003956,0.0003976,0.0003968,0.000398,0.0003964,0.0004068,0.0004056,0.000405,0.0004066,0.0004054,0.00018258,0.00018236,0.00018258,0.00018256,0.00018238,0.00018206,0.00018276,0.00018196,0.00018228,0.000182,0.00016682,0.0001676,0.00016738,0.00016702,0.00016684,0.0001673,0.00016982,0.00016406,0.0001693,0.0001665
524,0.00014496,0.00014564,0.00014334,0.00014326,0.00014264,0.00014,0.00014156,0.00014116,0.00014426,0.00014488,0.0003432,0.0003448,0.0003442,0.0003462,0.0003444,0.0003482,0.000347,0.000348,0.0003482,0.0003478,0.00017532,0.00017542,0.00017534,0.00017506,0.00017548,0.0001748,0.00017528,0.00017448,0.0001747,0.00017482,0.00016334,0.00016456,0.00016168,0.00016454,0.00016378,0.00016468,0.00016572,0.00016206,0.0001662,0.00016408
526,0.00014774,0.00014622,0.00014574,0.00014572,0.0001455,0.000142,0.0001429,0.0001423,0.00014672,0.00014664,0.00032,0.0003204,0.00032,0.000322,0.00032,0.0003216,0.0003216,0.0003214,0.000323,0.0003228,0.00016876,0.00016898,0.00016898,0.00016838,0.00016858,0.0001686,0.00016878,0.00016774,0.0001686,0.00016854,0.00015962,0.00015956,0.00015804,0.00016142,0.00015984,0.00015996,0.00016294,0.00015872,0.00016296,0.00016048
528,0.00014908,0.00014808,0.00014698,0.00014668,0.00014712,0.0001442,0.00014432,0.00014608,0.00014884,0.00014812,0.0002998,0.0002992,0.0002984,0.0003008,0.0002986,0.000301,0.0003012,0.000301,0.0003028,0.0003028,0.00016208,0.00016208,0.00016218,0.00016186,0.0001623,0.0001619,0.00016274,0.00016106,0.00016216,0.0001625,0.00015404,0.00015492,0.00015346,0.00015554,0.00015636,0.00015556,0.0001581,0.00015328,0.00015818,0.0001553
530,0.00014938,0.00015012,0.0001494,0.0001481,0.00014766,0.00014712,0.0001476,0.00014678,0.00014876,0.0001497,0.0002772,0.0002766,0.0002762,0.0002792,0.0002776,0.000279,0.0002806,0.0002798,0.0002804,0.0002812,0.0001558,0.0001562,0.00015602,0.00015576,0.0001559,0.00015586,0.00015676,0.00015518,0.0001562,0.00015668,0.0001449,0.00014796,0.00014396,0.00014728,0.00014482,0.00014858,0.00014972,0.00014696,0.00015012,0.00014986
532,0.00015006,0.00015158,0.00015058,0.00014982,0.00014966,0.00014886,0.00014792,0.00014764,0.00014994,0.00015208,0.0002602,0.000259,0.0002594,0.000262,0.0002592,0.0002608,0.0002634,0.0002622,0.000263,0.0002626,0.00015212,0.00015256,0.00015218,0.00015184,0.00015222,0.00015248,0.00015282,0.00015178,0.00015268,0.00015268,0.00013818,0.00014062,0.00013828,0.00014034,0.00013754,0.00013998,0.00014172,0.00013846,0.00014402,0.0001422
534,0.0001517,0.00015254,0.00015112,0.00014926,0.00015058,0.00015006,0.00014878,0.0001484,0.00015006,0.00015262,0.000245,0.000245,0.0002448,0.0002464,0.0002446,0.000246,0.0002484,0.0002472,0.0002486,0.0002478,0.00014974,0.0001501,0.00014976,0.00014914,0.0001498,0.0001499,0.0001505,0.00014914,0.00014974,0.00014978,0.00013246,0.00013378,0.00013032,0.00013502,0.00013354,0.00013372,0.00013592,0.00013394,0.00013798,0.00013572
536,0.00015196,0.00015174,0.00015172,0.00014946,0.0001513,0.00014998,0.00014956,0.00014776,0.00015,0.00015196,0.0002328,0.0002324,0.0002322,0.000234,0.0002322,0.0002334,0.000235,0.000234,0.0002348,0.0002348,0.000148,0.00014816,0.00014796,0.00014758,0.00014786,0.00014784,0.00014858,0.00014702,0.0001479,0.00014806,0.00012718,0.00012944,0.00012574,0.00012976,0.00012962,0.00013,0.00013014,0.000129,0.0001317,0.0001298
538,0.00015216,0.00015098,0.0001518,0.00014916,0.00015168,0.00014932,0.00014962,0.00014876,0.00014944,0.00015082,0.0002238,0.0002238,0.0002242,0.0002256,0.0002236,0.0002236,0.000225,0.0002244,0.0002252,0.0002252,0.00014762,0.0001477,0.0001471,0.00014724,0.00014754,0.00014696,0.00014766,0.00014648,0.00014716,0.00014706,0.00012542,0.00012496,0.00012354,0.000127,0.0001278,0.00012596,0.00012604,0.00012648,0.0001289,0.00012726
540,0.0001519,0.00015008,0.00015,0.00014802,0.00015044,0.00014848,0.00014824,0.00014648,0.00014854,0.00015116,0.0002164,0.0002172,0.0002172,0.0002194,0.0002172,0.0002164,0.000218,0.0002174,0.0002192,0.000219,0.0001476,0.00014836,0.00014728,0.00014736,0.00014802,0.00014732,0.00014764,0.00014672,0.00014732,0.0001474,0.000125,0.00012496,0.00012356,0.0001257,0.0001271,0.00012498,0.0001241,0.00012482,0.00013082,0.00012524
542,0.0001464,0.0001464,0.00014654,0.00014508,0.00014672,0.00014512,0.00014438,0.00014326,0.00014392,0.00014654,0.0002112,0.000211,0.0002118,0.0002144,0.0002128,0.0002112,0.0002132,0.0002112,0.0002132,0.0002136,0.00014814,0.00014878,0.00014884,0.00014804,0.00014834,0.00014788,0.00014826,0.00014762,0.00014814,0.00014832,0.00012688,0.00012722,0.00012472,0.00012818,0.00012916,0.00012718,0.0001267,0.00012724,0.00013008,0.0001286
544,0.000142,0.0001433,0.00014146,0.00014046,0.00014248,0.0001396,0.00014124,0.0001394,0.00014062,0.0001426,0.0002096,0.0002082,0.0002096,0.0002112,0.0002088,0.0002072,0.0002104,0.00021,0.0002108,0.0002114,0.00015004,0.00015032,0.00014986,0.00014946,0.00015042,0.00014922,0.00014962,0.00014926,0.00014966,0.00015044,0.00013226,0.00013216,0.00013142,0.0001335,0.0001362,0.0001322,0.0001328,0.00013428,0.00013594,0.00013456
546,0.0001362,0.00013598,0.00013594,0.00013388,0.00013518,0.0001349,0.00013516,0.00013412,0.00013476,0.00013658,0.0002068,0.0002054,0.000206,0.000208,0.0002064,0.0002046,0.000208,0.0002064,0.0002082,0.0002078,0.0001511,0.00015142,0.0001507,0.0001504,0.00015124,0.00015064,0.00015092,0.0001502,0.0001507,0.0001514,0.00013916,0.00013922,0.00013888,0.0001428,0.00014132,0.00014138,0.00014018,0.00014108,0.00014416,0.00014254
548,0.0001281,0.00012812,0.00012906,0.00012602,0.0001279,0.00012816,0.00012764,0.00012624,0.00012538,0.0001288,0.0002054,0.0002032,0.0002042,0.000206,0.0002052,0.0002022,0.0002058,0.0002032,0.0002054,0.000205,0.00015216,0.0001523,0.00015178,0.00015152,0.0001524,0.00015162,0.0001519,0.00015146,0.00015168,0.00015222,0.00014918,0.00014856,0.00014872,0.00015086,0.00015,0.00014958,0.0001496,0.00015022,0.00015242,0.00015136
550,0.0001193,0.00012024,0.00012018,0.00011852,0.0001192,0.00011978,0.00011962,0.00011818,0.00011826,0.00012044,0.000203,0.0002026,0.000204,0.0002046,0.0002036,0.0002014,0.0002046,0.0002014,0.0002042,0.0002032,0.00015314,0.0001531,0.00015282,0.00015254,0.00015354,0.00015266,0.00015282,0.00015248,0.00015236,0.00015306,0.00016122,0.00015994,0.00015976,0.00016244,0.00016208,0.00016006,0.00016018,0.00016326,0.00016278,0.0001605
552,0.00011296,0.00011368,0.00011482,0.00011198,0.0001131,0.00011266,0.0001134,0.000111,0.00011164,0.00011414,0.0002024,0.0002016,0.0002018,0.0002032,0.0002026,0.0002002,0.000203,0.00019936,0.0002024,0.0002018,0.00015414,0.00015382,0.00015338,0.00015298,0.00015388,0.00015342,0.00015308,0.0001532,0.00015286,0.00015372,0.00018208,0.000179,0.0001803,0.00018308,0.0001849,0.00018042,0.00017964,0.0001814,0.00018158,0.0001809
554,0.00010674,0.00010832,0.00010892,0.00010644,0.00010644,0.00010772,0.00010892,0.00010726,0.0001066,0.00010758,0.0002022,0.000201,0.0002028,0.000203,0.0002032,0.00019904,0.0002024,0.00019996,0.0002032,0.0002026,0.0001543,0.0001543,0.00015412,0.00015412,0.0001541,0.00015408,0.00015358,0.00015368,0.000154,0.00015484,0.0002492,0.000248,0.0002488,0.0002496,0.0002516,0.0002422,0.000242,0.0002456,0.0002456,0.0002432
556,0.0001057,0.00010602,0.00010672,0.00010524,0.00010432,0.00010574,0.0001055,0.00010524,0.00010406,0.00010604,0.0002024,0.0002014,0.0002018,0.0002028,0.0002022,0.00019836,0.0002022,0.0002004,0.0002026,0.000202,0.0001547,0.00015506,0.00015468,0.00015438,0.0001552,0.0001546,0.00015416,0.00015478,0.00015504,0.00015534,0.0004388,0.0004374,0.0004384,0.0004372,0.0004406,0.000419,0.0004174,0.0004226,0.0004206,0.0004198
558,0.00010484,0.00010572,0.00010552,0.00010524,0.00010414,0.00010634,0.00010604,0.00010528,0.00010468,0.0001062,0.0002018,0.0002014,0.0002018,0.0002024,0.0002014,0.00019862,0.0002034,0.000201,0.0002024,0.0002022,0.00015498,0.00015536,0.00015486,0.0001547,0.00015546,0.00015526,0.00015452,0.0001555,0.00015588,0.00015598,0.0008174,0.0008154,0.0008172,0.000815,0.0008182,0.000782,0.0007818,0.000788,0.0007866,0.000784
560,0.0001071,0.00010854,0.0001089,0.00010786,0.00010644,0.00010948,0.00011016,0.0001085,0.000107,0.0001098,0.0002026,0.0002016,0.0002014,0.000202,0.0002016,0.00019924,0.000204,0.000201,0.000203,0.0002024,0.00015562,0.00015594,0.00015506,0.00015522,0.00015552,0.00015534,0.00015474,0.00015644,0.00015632,0.00015676,0.00139,0.0013844,0.0013882,0.001384,0.0013916,0.001341,0.0013424,0.001351,0.0013476,0.0013464
562,0.00011558,0.00011558,0.00011616,0.0001157,0.00011492,0.0001152,0.00011666,0.00011692,0.00011526,0.00011652,0.0002006,0.000201,0.0001999,0.0002018,0.0002012,0.00019984,0.0002026,0.0002004,0.0002024,0.000202,0.00015532,0.00015562,0.0001551,0.0001554,0.00015508,0.0001559,0.00015538,0.00015688,0.00015692,0.00015684,0.002166,0.00216,0.002166,0.002158,0.002176,0.002108,0.002108,0.002118,0.002116,0.00211
564,0.00014148,0.00014242,0.00014092,0.00014308,0.00013918,0.00014002,0.00013844,0.00013882,0.00013846,0.00013856,0.0002004,0.0002006,0.00019882,0.00019994,0.00019996,0.00019666,0.0002008,0.0001999,0.0002,0.00019884,0.0001543,0.000155,0.00015414,0.00015456,0.00015458,0.00015544,0.0001542,0.00015598,0.00015644,0.00015542,0.00329,0.003282,0.003288,0.003278,0.003322,0.003218,0.003216,0.003226,0.003224,0.003216
566,0.000232,0.0002318,0.0002314,0.0002316,0.000229,0.0002202,0.0002208,0.0002218,0.0002198,0.0002198,0.00019858,0.0001986,0.00019694,0.00019766,0.00019808,0.0001949,0.00019918,0.00019742,0.0001973,0.0001966,0.00015412,0.00015414,0.00015324,0.00015378,0.00015388,0.00015426,0.00015322,0.00015492,0.00015456,0.00015458,0.0045,0.004492,0.004496,0.004484,0.00457,0.004418,0.004416,0.004422,0.00442,0.004412
568,0.0004828,0.0004818,0.000481,0.000482,0.0004784,0.0004536,0.000453,0.000454,0.0004528,0.000452,0.00019462,0.00019496,0.0001939,0.0001941,0.00019392,0.00019188,0.00019436,0.00019346,0.00019406,0.00019328,0.00015256,0.00015274,0.00015184,0.00015246,0.00015242,0.00015252,0.0001517,0.00015342,0.00015292,0.00015274,0.00573,0.005718,0.005724,0.005712,0.005854,0.005638,0.005632,0.005644,0.005642,0.005634
570,0.000953,0.0009518,0.0009508,0.000952,0.000946,0.0009016,0.0009002,0.0009036,0.0009038,0.0009024,0.00018912,0.00018968,0.00018878,0.00018824,0.0001887,0.00018668,0.000188,0.0001877,0.00018774,0.00018766,0.00014962,0.00015004,0.00014952,0.00014952,0.00014922,0.00014954,0.0001489,0.00015044,0.00015016,0.00014978,0.006926,0.006916,0.006922,0.00691,0.007116,0.00683,0.006828,0.00684,0.006844,0.006836
572,0.0016354,0.0016342,0.0016318,0.0016328,0.0016258,0.0015616,0.0015594,0.0015648,0.0015674,0.0015672,0.00018332,0.0001842,0.00018344,0.00018348,0.00018332,0.000181,0.00018316,0.00018218,0.00018216,0.00018252,0.00014608,0.00014676,0.00014604,0.0001465,0.00014644,0.00014582,0.00014488,0.00014654,0.00014696,0.00014614,0.00802,0.008008,0.008014,0.008,0.008272,0.007926,0.00793,0.007944,0.007952,0.007948
574,0.002574,0.00257,0.002568,0.00257,0.00256,0.002476,0.002478,0.002482,0.00249,0.00249,0.00018064,0.0001817,0.00018028,0.00018072,0.00017964,0.00017886,0.00017896,0.00017976,0.0001777,0.00017864,0.0001416,0.00014224,0.00014138,0.00014164,0.00014188,0.00014104,0.00014054,0.00014238,0.00014262,0.00014256,0.008978,0.008968,0.00897,0.008958,0.00928,0.008902,0.008912,0.008928,0.008942,0.008938
576,0.003736,0.00373,0.003728,0.003728,0.003718,0.003626,0.00363,0.00364,0.00365,0.003648,0.00018408,0.0001844,0.00018342,0.0001829,0.0001818,0.00018148,0.00018128,0.00018358,0.00018196,0.00018244,0.00013774,0.00013812,0.0001379,0.00013816,0.00013738,0.0001371,0.00013662,0.0001389,0.00013864,0.00013832,0.009762,0.00975,0.009748,0.009738,0.010084,0.009708,0.009722,0.00974,0.009756,0.00975
578,0.004872,0.004868,0.004864,0.004864,0.004852,0.004772,0.004776,0.004786,0.004796,0.004794,0.00019806,0.00019928,0.0001971,0.00019672,0.00019626,0.00019436,0.00019534,0.00019606,0.00019524,0.0001957,0.00013932,0.00013938,0.00013928,0.00013924,0.00013896,0.00013842,0.00013818,0.00014014,0.00013962,0.00013956,0.0103,0.01029,0.010288,0.01028,0.010594,0.010282,0.010296,0.010312,0.010328,0.010318
580,0.005984,0.005978,0.005974,0.005974,0.005962,0.005902,0.005908,0.005912,0.005924,0.005918,0.0002282,0.0002304,0.0002276,0.000228,0.000227,0.0002248,0.000225,0.0002264,0.0002244,0.0002254,0.00014936,0.00014934,0.00014912,0.00014968,0.00014886,0.0001477,0.00014778,0.00014978,0.00014906,0.0001488,0.01066,0.01065,0.01065,0.010642,0.01086,0.01068,0.01069,0.010702,0.010716,0.0107
582,0.007,0.006994,0.006992,0.006988,0.00698,0.00695,0.00695,0.006952,0.00696,0.006954,0.0002888,0.0002914,0.0002884,0.0002888,0.0002886,0.0002838,0.0002832,0.0002842,0.0002822,0.0002824,0.00017198,0.00017256,0.00017174,0.00017244,0.00017142,0.00016994,0.00016946,0.00017132,0.00017122,0.00017032,0.01085,0.010844,0.010842,0.010832,0.010916,0.010904,0.010908,0.010912,0.010924,0.010904
584,0.007846,0.007844,0.007838,0.007832,0.007826,0.007826,0.007824,0.007824,0.007828,0.007822,0.0004146,0.0004164,0.000413,0.0004128,0.0004114,0.0004032,0.0003994,0.0004012,0.0003994,0.0003996,0.000215,0.000215,0.000215,0.0002152,0.0002146,0.0002108,0.0002102,0.0002122,0.0002114,0.0002108,0.010902,0.010896,0.010898,0.010884,0.010854,0.010976,0.010974,0.01097,0.01098,0.01096
586,0.008494,0.00849,0.008488,0.00848,0.008474,0.0085,0.008494,0.00849,0.008496,0.008492,0.000703,0.0007058,0.0007018,0.0007028,0.0007012,0.0006776,0.0006738,0.0006762,0.0006742,0.0006766,0.0003034,0.0003028,0.000303,0.0003028,0.0003022,0.000294,0.0002942,0.0002956,0.0002952,0.000295,0.010816,0.01081,0.010816,0.010798,0.010686,0.010888,0.01088,0.010876,0.010888,0.01087
588,0.008814,0.008808,0.008806,0.008798,0.008794,0.008828,0.008822,0.00882,0.008828,0.008828,0.0010768,0.0010774,0.0010736,0.001076,0.0010734,0.0010432,0.0010402,0.001042,0.001042,0.0010452,0.000425,0.0004254,0.0004242,0.0004248,0.0004236,0.000411,0.0004112,0.0004138,0.0004138,0.000413,0.010668,0.010664,0.010672,0.01065,0.010502,0.010728,0.01072,0.010718,0.010736,0.010722
590,0.008832,0.008822,0.008822,0.008814,0.00881,0.008858,0.008854,0.008856,0.008868,0.008876,0.001433,0.0014332,0.001431,0.0014318,0.001431,0.0014056,0.0014034,0.0014082,0.0014072,0.001412,0.0005822,0.000582,0.000581,0.0005814,0.0005806,0.0005644,0.0005656,0.0005684,0.000569,0.0005684,0.01045,0.010448,0.010452,0.010434,0.010272,0.010496,0.010494,0.010496,0.010522,0.010514
592,0.00841,0.008396,0.0084,0.008394,0.008392,0.008462,0.008466,0.008474,0.008488,0.008502,0.0016638,0.0016642,0.0016636,0.0016626,0.0016624,0.0016498,0.0016506,0.0016552,0.0016544,0.0016604,0.0007756,0.0007762,0.0007748,0.0007756,0.0007744,0.000755,0.0007574,0.0007608,0.0007622,0.0007622,0.01017,0.010166,0.010174,0.010154,0.01,0.01021,0.01022,0.010226,0.010256,0.010254
594,0.007492,0.007476,0.007484,0.007478,0.007478,0.007578,0.00759,0.007604,0.007618,0.007636,0.0017514,0.0017508,0.0017522,0.0017508,0.001751,0.0017494,0.0017536,0.0017568,0.001757,0.0017634,0.0010054,0.0010064,0.0010044,0.0010052,0.0010038,0.0009826,0.000986,0.0009898,0.0009918,0.0009914,0.009838,0.009836,0.009844,0.009826,0.009682,0.009884,0.0099,0.009912,0.009944,0.009942
596,0.006078,0.006068,0.006074,0.00607,0.006072,0.006194,0.00621,0.00622,0.006232,0.00625,0.001738,0.0017388,0.00174,0.001739,0.001737,0.0017464,0.0017476,0.0017522,0.0017524,0.0017582,0.0012858,0.0012866,0.0012844,0.001285,0.0012834,0.001262,0.0012652,0.0012696,0.001271,0.0012702,0.009424,0.009422,0.009426,0.009412,0.009286,0.009478,0.009496,0.009506,0.00954,0.009534
598,0.004718,0.004712,0.004716,0.004712,0.004716,0.004838,0.004848,0.004854,0.00486,0.004872,0.0016792,0.0016792,0.0016806,0.0016808,0.0016794,0.001691,0.001693,0.001696,0.0016948,0.0016998,0.001559,0.0015602,0.0015568,0.0015584,0.0015562,0.001534,0.0015362,0.0015406,0.0015416,0.0015402,0.009028,0.009026,0.009028,0.009016,0.008914,0.009086,0.0091,0.009106,0.00913,0.00912
600,0.003508,0.003506,0.003508,0.003502,0.00351,0.003616,0.00362,0.00362,0.003624,0.00363,0.001622,0.001623,0.0016248,0.0016238,0.0016228,0.0016332,0.0016332,0.001635,0.0016316,0.001637,0.0018308,0.001832,0.0018292,0.0018304,0.0018284,0.0018062,0.001807,0.0018102,0.0018104,0.0018086,0.008632,0.00863,0.008632,0.008622,0.00853,0.008688,0.008694,0.008694,0.00871,0.008696
602,0.002496,0.002492,0.002494,0.002492,0.002498,0.002584,0.002584,0.002582,0.002582,0.002584,0.0016588,0.001659,0.0016588,0.0016592,0.0016586,0.0016558,0.0016544,0.0016546,0.0016514,0.001655,0.002092,0.002092,0.00209,0.00209,0.00209,0.002068,0.002066,0.002068,0.002068,0.002066,0.008242,0.00824,0.00824,0.008232,0.008158,0.00829,0.008288,0.008284,0.008296,0.00828
604,0.0016822,0.0016802,0.0016826,0.0016796,0.0016858,0.0017516,0.0017498,0.0017446,0.0017456,0.0017486,0.0019128,0.0019132,0.0019108,0.0019114,0.0019108,0.0018838,0.0018806,0.0018808,0.001878,0.001882,0.002332,0.002334,0.00233,0.002332,0.00233,0.00231,0.002308,0.002308,0.00231,0.002306,0.007852,0.00785,0.007852,0.007844,0.00778,0.007886,0.007882,0.007876,0.00789,0.007874
606,0.0010288,0.0010256,0.0010304,0.0010256,0.0010312,0.0010768,0.0010718,0.0010696,0.0010696,0.0010728,0.002506,0.002506,0.002502,0.002506,0.002502,0.002446,0.002442,0.002444,0.002442,0.002448,0.002558,0.00256,0.002556,0.002558,0.002556,0.002536,0.002534,0.002536,0.002538,0.002536,0.007396,0.007396,0.007396,0.00739,0.007336,0.007424,0.007418,0.007414,0.00743,0.007416
608,0.0006782,0.000677,0.0006798,0.0006764,0.0006786,0.0007016,0.0006996,0.0006966,0.0006986,0.0007,0.003334,0.003334,0.003332,0.003334,0.003332,0.003252,0.003248,0.00325,0.003254,0.003262,0.002694,0.002696,0.002692,0.002694,0.002692,0.002678,0.002678,0.00268,0.002682,0.00268,0.006866,0.006866,0.006866,0.006864,0.006808,0.006898,0.006894,0.006892,0.006912,0.0069
610,0.0005398,0.0005382,0.000541,0.0005384,0.0005406,0.00055,0.0005474,0.0005454,0.0005492,0.0005496,0.004264,0.004266,0.00426,0.004262,0.00426,0.00417,0.004172,0.004178,0.004184,0.004192,0.002716,0.002718,0.002714,0.002716,0.002716,0.00271,0.00271,0.002714,0.002716,0.002716,0.006198,0.006196,0.006194,0.006196,0.00613,0.006242,0.006242,0.006246,0.006264,0.00626
612,0.0004862,0.0004844,0.000487,0.0004836,0.0004864,0.0004916,0.00049,0.0004874,0.0004906,0.000493,0.005224,0.005226,0.005222,0.005224,0.005222,0.005136,0.00514,0.00515,0.00516,0.005168,0.002608,0.00261,0.002606,0.002608,0.002608,0.002616,0.002618,0.002622,0.002626,0.002626,0.0054,0.0054,0.0054,0.0054,0.005342,0.005462,0.005468,0.005472,0.00549,0.005486
614,0.0004622,0.0004626,0.000462,0.0004594,0.0004604,0.0004676,0.0004642,0.0004632,0.0004668,0.0004682,0.006152,0.006154,0.00615,0.006152,0.00615,0.006082,0.00609,0.0061,0.00611,0.00612,0.002372,0.002374,0.00237,0.002374,0.002372,0.002398,0.002402,0.002406,0.00241,0.00241,0.004556,0.004558,0.00456,0.00456,0.004514,0.004636,0.004644,0.004646,0.00466,0.00466
616,0.0004522,0.0004512,0.0004528,0.0004474,0.0004508,0.0004562,0.0004544,0.0004524,0.000456,0.0004574,0.007046,0.00705,0.007046,0.007048,0.007048,0.00701,0.00702,0.007028,0.007038,0.007046,0.001995,0.0019962,0.0019954,0.0019972,0.0019976,0.002038,0.002044,0.002046,0.00205,0.00205,0.003644,0.003648,0.003648,0.003652,0.003616,0.003736,0.003742,0.003744,0.003756,0.003752
618,0.000457,0.0004544,0.0004574,0.0004526,0.0004538,0.0004608,0.0004598,0.000457,0.000459,0.0004604,0.00772,0.007724,0.007722,0.007722,0.007724,0.007724,0.007732,0.007736,0.007746,0.007752,0.0015712,0.0015724,0.0015724,0.001573,0.0015736,0.0016232,0.0016266,0.0016282,0.0016294,0.0016288,0.0028,0.002802,0.002802,0.002806,0.00278,0.00289,0.002892,0.002892,0.002902,0.002896
620,0.0004756,0.0004754,0.0004766,0.000474,0.000475,0.000479,0.000478,0.0004726,0.0004786,0.0004796,0.008136,0.00814,0.008138,0.008138,0.008138,0.008168,0.008172,0.008172,0.008182,0.008186,0.001156,0.0011572,0.0011572,0.0011568,0.0011584,0.0012066,0.0012084,0.0012086,0.0012086,0.0012084,0.002052,0.002052,0.002054,0.002054,0.002036,0.002132,0.002134,0.00213,0.002138,0.002132
622,0.0005204,0.000519,0.0005204,0.0005174,0.0005188,0.000521,0.0005188,0.000514,0.000518,0.0005184,0.00835,0.008352,0.008354,0.008352,0.008352,0.008396,0.0084,0.008396,0.008402,0.008408,0.0007812,0.000783,0.000783,0.0007824,0.0007836,0.0008214,0.0008228,0.0008212,0.0008216,0.000821,0.0013958,0.0013956,0.0014,0.0014012,0.0013864,0.0014588,0.0014594,0.0014552,0.0014612,0.0014578
624,0.0005934,0.0005912,0.0005936,0.0005894,0.0005924,0.0005884,0.000587,0.0005838,0.0005856,0.0005856,0.008386,0.008386,0.00839,0.008386,0.008386,0.008428,0.008432,0.008428,0.00843,0.00844,0.0005544,0.000555,0.0005542,0.0005536,0.0005548,0.0005706,0.000571,0.0005706,0.0005702,0.00057,0.0009554,0.0009534,0.0009572,0.0009584,0.000947,0.0009864,0.0009872,0.0009862,0.0009892,0.0009864
626,0.0007044,0.0007016,0.0007062,0.0007,0.0007024,0.0006934,0.0006912,0.0006888,0.000693,0.0006936,0.008254,0.00825,0.008256,0.008256,0.008252,0.008284,0.00829,0.008286,0.008288,0.0083,0.0006032,0.0006028,0.0006018,0.000602,0.0006024,0.0005872,0.0005886,0.0005894,0.0005892,0.0005896,0.000881,0.0008782,0.0008848,0.0008848,0.0008718,0.000874,0.0008736,0.0008704,0.0008754,0.0008746
628,0.0008414,0.0008374,0.0008434,0.0008352,0.000839,0.0008254,0.0008228,0.0008218,0.0008258,0.000824,0.008006,0.008002,0.008008,0.008006,0.008002,0.008014,0.008024,0.008024,0.00803,0.008046,0.0008978,0.0008974,0.0008952,0.0008958,0.0008948,0.0008614,0.0008626,0.0008652,0.0008656,0.0008666,0.0011444,0.0011384,0.0011458,0.0011432,0.0011328,0.0011128,0.0011094,0.0011132,0.0011162,0.0011138
630,0.000986,0.0009806,0.0009844,0.0009798,0.000981,0.000964,0.0009634,0.0009626,0.0009682,0.000966,0.007708,0.007704,0.00771,0.00771,0.007704,0.0077,0.007716,0.00772,0.007728,0.007748,0.0012778,0.0012772,0.0012748,0.0012746,0.001274,0.0012318,0.0012338,0.0012372,0.0012394,0.0012404,0.0015288,0.0015208,0.0015296,0.0015264,0.0015194,0.0014858,0.0014852,0.0014908,0.0014936,0.0014922
632,0.0011316,0.0011264,0.0011302,0.0011236,0.0011262,0.0011068,0.0011076,0.0011062,0.0011132,0.0011122,0.007372,0.007368,0.007372,0.007374,0.00737,0.007358,0.007378,0.007386,0.007396,0.007414,0.0016802,0.0016796,0.001677,0.0016768,0.001676,0.0016304,0.0016342,0.0016386,0.0016404,0.0016418,0.0019478,0.0019388,0.0019446,0.0019448,0.0019408,0.001901,0.0019014,0.0019062,0.0019102,0.0019104
634,0.0012784,0.0012746,0.0012782,0.0012716,0.0012754,0.001255,0.0012556,0.0012548,0.00126,0.0012592,0.007016,0.00701,0.007016,0.007016,0.007012,0.007006,0.00703,0.007036,0.007044,0.00706,0.002084,0.002084,0.00208,0.00208,0.002078,0.002034,0.002038,0.002042,0.002044,0.002046,0.002368,0.002362,0.002364,0.002364,0.002358,0.002324,0.002324,0.00233,0.002334,0.002332
636,0.0014306,0.0014296,0.0014316,0.0014248,0.0014264,0.001413,0.0014128,0.0014114,0.0014156,0.0014132,0.006606,0.006602,0.006608,0.00661,0.006606,0.006616,0.006634,0.00664,0.006644,0.006656,0.00251,0.00251,0.002506,0.002508,0.002506,0.002466,0.00247,0.002474,0.002474,0.002476,0.002818,0.00281,0.002816,0.002816,0.00281,0.00278,0.002778,0.002788,0.002788,0.002782
638,0.0015636,0.0015622,0.0015642,0.0015568,0.0015594,0.0015484,0.0015484,0.0015462,0.0015508,0.0015496,0.00624,0.006236,0.006242,0.006244,0.00624,0.00627,0.00628,0.00628,0.00628,0.006288,0.002878,0.002878,0.002874,0.002874,0.002874,0.002844,0.002844,0.002848,0.002848,0.002846,0.003206,0.003194,0.003206,0.003202,0.003196,0.003182,0.003178,0.00318,0.003178,0.003174
640,0.0016924,0.0016876,0.0016892,0.0016852,0.0016876,0.0016778,0.0016804,0.0016764,0.0016788,0.0016738,0.005922,0.005916,0.005922,0.005924,0.00592,0.005964,0.005966,0.005962,0.005958,0.005962,0.003182,0.003182,0.003178,0.00318,0.003178,0.00316,0.003158,0.00316,0.003158,0.003156,0.003506,0.0035,0.003506,0.003504,0.003502,0.003496,0.003492,0.003492,0.00349,0.003482
642,0.0018116,0.0018078,0.0018098,0.0018038,0.0018072,0.0018012,0.0018016,0.0017982,0.0017974,0.0017952,0.005636,0.005632,0.005636,0.005638,0.005636,0.005682,0.005678,0.005668,0.005664,0.005666,0.003402,0.0034,0.003396,0.003398,0.003398,0.00339,0.003386,0.003386,0.003384,0.00338,0.003678,0.003672,0.00368,0.003676,0.00367,0.003684,0.003678,0.003674,0.00367,0.003664
644,0.0019302,0.0019262,0.0019294,0.001923,0.001925,0.0019188,0.0019188,0.0019152,0.0019166,0.0019106,0.005394,0.005392,0.005398,0.005396,0.005392,0.005434,0.00543,0.005418,0.005412,0.005416,0.003528,0.003528,0.003524,0.003528,0.003526,0.003528,0.003522,0.00352,0.003518,0.003514,0.003726,0.003718,0.003724,0.003722,0.003718,0.003734,0.003726,0.003728,0.00372,0.003716
646,0.002064,0.002066,0.002066,0.00206,0.00206,0.002054,0.002052,0.002046,0.002048,0.002048,0.005166,0.00516,0.005162,0.005166,0.00516,0.005192,0.005184,0.005178,0.005174,0.005178,0.003578,0.003578,0.003574,0.003576,0.003574,0.00358,0.003572,0.003572,0.003572,0.00357,0.003702,0.0037,0.003704,0.003702,0.003698,0.003706,0.003702,0.003704,0.003704,0.003704
648,0.00218,0.00218,0.00218,0.002178,0.002178,0.002166,0.002168,0.002166,0.00217,0.002172,0.00498,0.004976,0.00498,0.004984,0.00498,0.005002,0.004996,0.004996,0.004998,0.005002,0.003578,0.003576,0.003572,0.003576,0.003574,0.003578,0.003574,0.003576,0.003576,0.003576,0.003666,0.003666,0.003666,0.003664,0.003662,0.00367,0.003668,0.00367,0.003674,0.003676
650,0.00227,0.002268,0.002268,0.002268,0.002264,0.002256,0.00226,0.00226,0.002266,0.002266,0.00478,0.004776,0.004778,0.004782,0.00478,0.004798,0.004802,0.004804,0.004808,0.004816,0.003534,0.003534,0.00353,0.003534,0.003532,0.003538,0.003536,0.003542,0.003546,0.003548,0.003596,0.003596,0.003596,0.003594,0.003594,0.003604,0.003606,0.003612,0.003618,0.003622
652,0.002324,0.002324,0.00232,0.002322,0.00232,0.002314,0.002322,0.002326,0.00233,0.002332,0.004542,0.004536,0.004538,0.004542,0.00454,0.004558,0.004572,0.004578,0.004582,0.004594,0.003424,0.003424,0.00342,0.003424,0.003424,0.003438,0.003438,0.003446,0.003452,0.003458,0.003458,0.003458,0.003456,0.003456,0.003458,0.003478,0.003482,0.00349,0.003498,0.003504
654,0.002362,0.00236,0.00236,0.00236,0.002358,0.002358,0.002366,0.002374,0.00238,0.00238,0.004302,0.004296,0.004298,0.004304,0.0043,0.004326,0.00434,0.004348,0.004354,0.004366,0.003226,0.003226,0.003224,0.003228,0.003226,0.003254,0.00326,0.00327,0.003276,0.00328,0.00323,0.00323,0.003228,0.00323,0.003226,0.003268,0.003276,0.00328,0.00329,0.003294
656,0.002406,0.002406,0.002406,0.002402,0.002398,0.002408,0.002418,0.002422,0.002432,0.00243,0.004078,0.00407,0.004074,0.004078,0.004074,0.004108,0.004122,0.004132,0.004138,0.004144,0.002888,0.002888,0.002886,0.00289,0.002888,0.002934,0.00294,0.00295,0.002956,0.00296,0.00287,0.00287,0.002866,0.002866,0.00287,0.002918,0.002928,0.002934,0.002946,0.002942
658,0.002452,0.002452,0.002452,0.002448,0.002446,0.002456,0.00247,0.002472,0.002474,0.002478,0.003918,0.003916,0.003916,0.003922,0.003918,0.003954,0.003968,0.003974,0.003976,0.00398,0.002516,0.002516,0.002512,0.002518,0.002516,0.00257,0.002574,0.002582,0.002586,0.002588,0.0025,0.0025,0.002498,0.002496,0.002506,0.002558,0.00256,0.002564,0.00257,0.002566
660,0.002496,0.002498,0.002492,0.002494,0.002492,0.002504,0.002512,0.002514,0.002514,0.002516,0.003788,0.003786,0.003788,0.003792,0.003788,0.003824,0.003834,0.00384,0.003836,0.003842,0.002122,0.002122,0.00212,0.002124,0.002122,0.002178,0.002182,0.002184,0.002188,0.002186,0.00212,0.00212,0.002116,0.002116,0.002126,0.00217,0.002178,0.002176,0.00218,0.002178
662,0.002526,0.002526,0.002524,0.002524,0.002522,0.002538,0.002542,0.00254,0.00254,0.00254,0.003662,0.00366,0.003664,0.003668,0.00366,0.003696,0.003704,0.003706,0.003698,0.003702,0.0017256,0.0017246,0.0017242,0.001727,0.0017264,0.001777,0.0017784,0.00178,0.0017802,0.0017784,0.0017324,0.0017368,0.0017316,0.0017292,0.0017468,0.00178,0.0017856,0.0017822,0.0017856,0.0017838
664,0.002506,0.002508,0.002506,0.00251,0.002504,0.002524,0.002526,0.002524,0.002522,0.00252,0.003496,0.003496,0.003494,0.0035,0.003494,0.003532,0.003532,0.003534,0.003522,0.003524,0.0013094,0.0013108,0.0013102,0.0013116,0.0013118,0.0013568,0.0013552,0.0013558,0.0013554,0.0013524,0.0013288,0.0013334,0.0013264,0.00133,0.0013404,0.0013708,0.0013718,0.0013696,0.001369,0.0013712
666,0.002384,0.002388,0.002382,0.002384,0.002378,0.002406,0.002406,0.002404,0.002396,0.002398,0.003232,0.003226,0.003228,0.003232,0.00323,0.003266,0.003264,0.003262,0.003252,0.003254,0.0009048,0.0009064,0.0009066,0.0009076,0.0009082,0.0009466,0.0009434,0.0009436,0.0009434,0.0009402,0.000933,0.000935,0.0009272,0.0009304,0.000947,0.0009678,0.000969,0.0009676,0.0009646,0.000969
668,0.002168,0.00217,0.002168,0.002168,0.002166,0.002192,0.002192,0.002188,0.002182,0.002186,0.002886,0.00288,0.002882,0.002886,0.002882,0.002918,0.002916,0.002914,0.002904,0.002908,0.00058,0.0005814,0.0005814,0.0005828,0.0005836,0.0006118,0.0006096,0.0006084,0.0006094,0.000607,0.0006106,0.000616,0.0006038,0.0006052,0.0006238,0.0006368,0.000636,0.0006364,0.0006398,0.0006358
670,0.0018998,0.0018992,0.001899,0.001899,0.001899,0.0019216,0.0019208,0.0019202,0.0019156,0.0019194,0.002492,0.002486,0.00249,0.00249,0.00249,0.002518,0.002516,0.002518,0.002508,0.002512,0.0003518,0.0003524,0.0003524,0.0003538,0.0003538,0.0003704,0.000369,0.0003684,0.0003686,0.0003658,0.000386,0.0003884,0.0003784,0.0003804,0.0003964,0.0003978,0.000397,0.0003978,0.0003984,0.000399
672,0.001606,0.001604,0.0016064,0.0016088,0.0016018,0.0016272,0.0016224,0.0016266,0.0016212,0.0016232,0.00208,0.002074,0.00208,0.002078,0.00208,0.002104,0.002104,0.002106,0.0021,0.002102,0.0002346,0.0002354,0.0002362,0.0002374,0.0002358,0.0002436,0.0002416,0.000242,0.0002422,0.0002402,0.000268,0.0002704,0.0002624,0.000262,0.0002838,0.0002726,0.0002744,0.0002736,0.0002726,0.0002782
674,0.0012552,0.00126,0.0012634,0.0012652,0.001261,0.0012814,0.0012848,0.0012846,0.0012816,0.0012886,0.0016242,0.0016194,0.001622,0.0016248,0.0016256,0.0016478,0.0016496,0.0016536,0.0016448,0.0016506,0.00018756,0.00018808,0.0001895,0.00018926,0.0001907,0.00019008,0.0001904,0.00019132,0.00019154,0.00018902,0.0002198,0.0002284,0.0002206,0.0002158,0.0002354,0.000224,0.0002232,0.0002258,0.0002272,0.0002294
676,0.0009444,0.000945,0.0009432,0.0009502,0.0009464,0.0009694,0.0009714,0.000973,0.0009678,0.000973,0.0012176,0.0012154,0.0012178,0.0012178,0.0012176,0.0012434,0.001244,0.001248,0.0012422,0.0012484,0.0001707,0.00017134,0.00017272,0.00017198,0.00017436,0.00017258,0.00017294,0.0001738,0.00017442,0.00017136,0.0002086,0.0002074,0.0002006,0.0002044,0.0002202,0.0002094,0.0002054,0.0002076,0.0002074,0.00021
678,0.0006546,0.000656,0.0006576,0.0006602,0.0006602,0.0006836,0.0006854,0.0006842,0.00068,0.000684,0.0008572,0.0008552,0.0008566,0.0008538,0.0008554,0.0008826,0.000883,0.0008872,0.0008816,0.000884,0.000161,0.00016206,0.00016162,0.00016214,0.00016334,0.00016336,0.0001637,0.00016302,0.0001648,0.00016212,0.00019762,0.0002002,0.0001898,0.00019444,0.0002122,0.00019746,0.00019452,0.00019248,0.00019808,0.00019666
680,0.0004172,0.0004198,0.0004212,0.0004218,0.0004224,0.000444,0.000443,0.0004408,0.0004372,0.0004422,0.000559,0.0005572,0.000559,0.000556,0.0005606,0.00058,0.0005816,0.000585,0.0005796,0.0005802,0.00015496,0.00015524,0.0001552,0.00015534,0.00015516,0.0001559,0.00015662,0.0001563,0.00015742,0.00015612,0.00018916,0.00019546,0.00018206,0.00018492,0.0002032,0.00019614,0.00018456,0.0001873,0.00018824,0.00019082
682,0.000265,0.0002694,0.0002668,0.0002718,0.0002702,0.0002848,0.0002822,0.000282,0.0002778,0.0002808,0.0003676,0.0003658,0.0003662,0.0003666,0.0003706,0.0003804,0.0003852,0.0003816,0.0003798,0.000384,0.0001495,0.00015108,0.00015142,0.00014966,0.00015136,0.00015228,0.00015326,0.00015212,0.00015432,0.00015202,0.00019162,0.00019154,0.00018142,0.0001804,0.0002002,0.00018914,0.00018414,0.0001853,0.00019102,0.00019398
684,0.0002012,0.000202,0.0002034,0.0002046,0.0002072,0.0002132,0.0002108,0.0002104,0.0002088,0.0002114,0.0002826,0.000281,0.0002796,0.0002794,0.0002824,0.0002874,0.0002908,0.0002904,0.000285,0.0002894,0.00014428,0.00014554,0.00014656,0.00014474,0.00014614,0.00014742,0.00014846,0.00014658,0.00014926,0.00014698,0.00018946,0.0001857,0.00018126,0.00017956,0.000209,0.00018278,0.00018472,0.00017962,0.00018738,0.00018534
686,0.00017928,0.00017664,0.00018158,0.0001856,0.00018428,0.00019078,0.00018458,0.00018682,0.00018564,0.0001891,0.000251,0.0002494,0.0002456,0.0002484,0.0002504,0.0002546,0.0002558,0.0002554,0.00025,0.0002582,0.0001375,0.00013766,0.00013918,0.0001366,0.0001387,0.00014096,0.00014174,0.00014086,0.00014226,0.0001402,0.00018226,0.00017984,0.00017588,0.0001757,0.00019028,0.00017916,0.00017422,0.00017276,0.00018134,0.00018232
688,0.0001678,0.00016656,0.00017012,0.00017388,0.00017138,0.00017818,0.000171,0.00017256,0.00017058,0.00017488,0.0002282,0.0002288,0.0002252,0.0002246,0.0002292,0.0002334,0.0002364,0.0002328,0.0002298,0.0002346,0.00012988,0.00013024,0.00013138,0.00012888,0.00013114,0.0001324,0.00013378,0.00013232,0.00013364,0.00013148,0.00017384,0.00017394,0.00017126,0.00017534,0.00018558,0.00017496,0.00016744,0.00016402,0.00017618,0.00017284
690,0.0001571,0.00015784,0.00016748,0.00016564,0.00016302,0.00016982,0.00016336,0.00016512,0.00016298,0.00016422,0.0002124,0.0002104,0.0002078,0.0002094,0.0002134,0.0002174,0.0002158,0.0002152,0.000211,0.0002174,0.00012334,0.0001242,0.00012324,0.00012058,0.00012412,0.0001252,0.00012474,0.0001235,0.00012406,0.0001241,0.0001667,0.0001624,0.00016784,0.00017022,0.00017802,0.00016938,0.00016198,0.00015836,0.00016864,0.00016482
692,0.00015012,0.00014906,0.0001566,0.00015098,0.00015416,0.0001642,0.0001539,0.00015654,0.00015278,0.00015506,0.00019244,0.00019216,0.00019166,0.00019128,0.00019504,0.00019632,0.00019952,0.00019644,0.00019398,0.0001981,0.00011306,0.00011336,0.00011542,0.00011136,0.00011518,0.0001139,0.0001161,0.0001148,0.00011496,0.00011522,0.00015616,0.0001599,0.00015676,0.00016366,0.00017062,0.00016568,0.00014992,0.00014768,0.00015882,0.00015428
694,0.00014336,0.0001393,0.00014564,0.00014012,0.00014156,0.00014826,0.00014034,0.00014302,0.0001387,0.00014394,0.00017508,0.0001757,0.00017506,0.00017756,0.00017698,0.00018496,0.0001833,0.000179,0.00017798,0.00018626,0.000105,0.00010468,0.0001057,0.00010308,0.00010624,0.00010486,0.00010592,0.00010622,0.00010604,0.00010534,0.00015216,0.00015018,0.00015374,0.00015898,0.00015842,0.0001499,0.00014652,0.00014102,0.00015224,0.00015316
696,0.00013764,0.00013038,0.00013434,0.00013544,0.00013448,0.00014056,0.0001331,0.00012818,0.000134,0.00013354,0.00016436,0.00016098,0.00016164,0.0001614,0.00016366,0.00017056,0.00016596,0.0001651,0.00016268,0.00017152,9.728e-05,9.574e-05,9.652e-05,9.596e-05,9.87e-05,9.66e-05,9.928e-05,9.784e-05,9.8e-05,9.858e-05,0.00013974,0.00014126,0.00014972,0.00015026,0.00013912,0.00014322,0.00013896,0.00013412,0.00014452,0.00014478
698,0.00013072,0.00012352,0.00012514,0.00012896,0.0001281,0.0001305,0.00012546,0.0001241,0.0001261,0.0001216,0.00015322,0.0001503,0.00015032,0.00015432,0.00015162,0.00015618,0.000157,0.00014796,0.00015052,0.00016066,9.052e-05,8.948e-05,9.2e-05,8.918e-05,9.14e-05,9.1e-05,9.186e-05,9.04e-05,9.032e-05,9.088e-05,0.0001394,0.00013758,0.00014564,0.00014554,0.00014134,0.0001381,0.00013372,0.00012518,0.00014036,0.00013796
700,0.0001226,0.0001177,0.00012544,0.00011738,0.00011976,0.0001234,0.0001163,0.0001213,0.00011968,0.00011636,0.0001445,0.00014152,0.00013768,0.0001445,0.00013912,0.00014758,0.00014342,0.00014134,0.00014458,0.00014854,8.408e-05,8.376e-05,8.574e-05,8.31e-05,8.562e-05,8.76e-05,8.538e-05,8.458e-05,8.404e-05,8.712e-05,0.00013524,0.00013298,0.00013974,0.00013938,0.00013464,0.00013428,0.00012896,0.00011934,0.000138,0.00013434
702,0.00011648,0.00011394,0.0001187,0.00011178,0.00011344,0.00011962,0.00011074,0.00011146,0.00011496,0.00011212,0.00013212,0.00013232,0.00012998,0.00013436,0.00012962,0.00013682,0.00013454,0.00013434,0.0001343,0.0001401,7.974e-05,7.858e-05,8.092e-05,7.782e-05,8.078e-05,7.944e-05,7.918e-05,7.902e-05,7.776e-05,8.196e-05,0.00013118,0.0001259,0.00014416,0.00014382,0.00012422,0.00012842,0.00012506,0.00011826,0.00013076,0.0001313
704,0.00010938,0.0001075,0.0001128,0.00010758,0.00010722,0.00011068,0.00011004,0.0001087,0.00011128,0.00010764,0.00012378,0.00012756,0.0001233,0.00012674,0.00012454,0.00013172,0.00012742,0.00012514,0.0001254,0.00013122,7.57e-05,7.448e-05,7.568e-05,7.372e-05,7.562e-05,7.578e-05,7.52e-05,7.524e-05,7.39e-05,7.782e-05,0.00012584,0.0001229,0.00014072,0.00014092,0.00012476,0.00012618,0.00011596,0.00011916,0.00012776,0.00012918
706,0.0001094,0.00010324,0.00011008,0.00010008,0.00010672,0.0001059,0.00010524,0.0001053,0.00010836,0.00010852,0.00011936,0.00011808,0.00011918,0.00012128,0.00012118,0.00012508,0.00012148,0.0001191,0.00012158,0.00012498,7.178e-05,6.912e-05,7.178e-05,7.034e-05,7.014e-05,7.132e-05,7.118e-05,7.212e-05,7.13e-05,7.372e-05,0.00011956,0.00011832,0.00013248,0.0001369,0.00012102,0.00012464,0.00012138,0.0001072,0.00013112,0.00012708
708,0.00010748,0.0001011,0.00010748,0.00010012,0.0001021,0.00010108,0.00010302,9.79e-05,0.00010384,0.00010158,0.0001145,0.00011908,0.00011774,0.00011944,0.00011806,0.00012116,0.00011704,0.00011686,0.00011504,0.00012286,6.894e-05,6.67e-05,6.964e-05,6.748e-05,6.794e-05,6.846e-05,6.836e-05,6.834e-05,6.758e-05,7.072e-05,0.00011856,0.0001152,0.00013496,0.00014174,0.00011868,0.0001278,0.00011638,0.00010462,0.00012478,0.00012252
710,0.00010938,9.622e-05,0.00010694,9.38e-05,0.0001001,0.00010174,9.432e-05,0.00010026,0.0001004,9.55e-05,0.00011312,0.00011376,0.00011784,0.00011308,0.000114,0.00011784,0.00011294,0.00011358,0.0001168,0.00011576,6.55e-05,6.392e-05,6.61e-05,6.494e-05,6.456e-05,6.696e-05,6.496e-05,6.472e-05,6.33e-05,6.498e-05,0.00011874,0.00011032,0.00012788,0.00013716,0.00011832,0.00012368,0.00011612,0.00011026,0.00012288,0.00012108
712,0.00010308,9.34e-05,0.00010588,8.896e-05,9.622e-05,9.256e-05,9.344e-05,9.172e-05,9.972e-05,9.29e-05,0.00010872,0.000109,0.0001158,0.00011138,0.00011138,0.00011434,0.00010748,0.00010974,0.00011382,0.00011702,6.334e-05,6.244e-05,6.412e-05,6.436e-05,6.322e-05,6.538e-05,6.232e-05,6.34e-05,6.154e-05,6.424e-05,0.00011254,0.00010242,0.00013302,0.00013346,0.00010628,0.0001175,0.00011034,0.00010784,0.00012528,0.00012356
714,9.872e-05,9.48e-05,9.95e-05,9.316e-05,9.406e-05,9.44e-05,8.918e-05,8.892e-05,9.76e-05,9.158e-05,0.0001059,0.00010914,0.00011198,0.00011264,0.00010906,0.0001087,0.00010858,0.00010572,0.00011234,0.000116,6.11e-05,5.944e-05,6.18e-05,6.102e-05,6.106e-05,6.2e-05,6.02e-05,6.172e-05,5.964e-05,6.234e-05,0.00011004,0.00010638,0.00012658,0.00012702,0.0001067,0.00011458,0.00010976,0.00010644,0.00012096,0.00011692
716,9.696e-05,8.748e-05,9.71e-05,8.996e-05,9.628e-05,9.268e-05,8.29e-05,8.242e-05,9.508e-05,8.888e-05,9.73e-05,0.00010668,0.0001106,0.00010958,0.0001086,0.00010934,0.00010396,0.00010376,0.0001023,0.00011054,5.828e-05,5.652e-05,5.506e-05,5.558e-05,5.68e-05,5.85e-05,5.638e-05,5.836e-05,5.614e-05,5.926e-05,0.00010324,0.00010338,0.00012416,0.00012458,9.388e-05,0.00011062,0.00011064,0.00010972,0.0001138,0.0001083
718,9.482e-05,8.21e-05,8.92e-05,8.158e-05,9.482e-05,8.288e-05,7.194e-05,7.544e-05,8.784e-05,8.176e-05,9.562e-05,0.00010118,0.00010354,0.00010448,0.00010722,0.0001002,9.356e-05,9.774e-05,9.802e-05,9.882e-05,5.412e-05,5.276e-05,5.216e-05,5.328e-05,5.474e-05,5.418e-05,5.322e-05,5.336e-05,5.314e-05,5.584e-05,0.00010108,9.838e-05,0.00012082,0.0001223,8.374e-05,0.00010186,0.00010612,0.00010058,0.00010768,0.00010892
720,8.266e-05,8.34e-05,8.474e-05,7.676e-05,8.77e-05,7.534e-05,6.988e-05,7.6e-05,8.416e-05,7.628e-05,8.9e-05,9.734e-05,9.326e-05,9.642e-05,9.896e-05,9.612e-05,8.884e-05,9.344e-05,9.82e-05,9.724e-05,5.19e-05,5.09e-05,4.872e-05,4.986e-05,5.13e-05,4.882e-05,5.056e-05,5.258e-05,5.034e-05,5.182e-05,9.192e-05,8.904e-05,0.00011246,0.00011372,8.748e-05,9.574e-05,9.83e-05,9.202e-05,0.00010126,0.00010222
722,7.962e-05,7.222e-05,8.222e-05,6.644e-05,8.308e-05,6.426e-05,6.622e-05,6.844e-05,7.602e-05,7.04e-05,8.378e-05,9.108e-05,9.468e-05,9.18e-05,9.31e-05,8.94e-05,8.4e-05,9.238e-05,8.902e-05,8.988e-05,4.968e-05,4.77e-05,4.608e-05,4.88e-05,4.968e-05,4.73e-05,4.822e-05,4.932e-05,4.972e-05,4.88e-05,8.52e-05,8.442e-05,0.0001089,0.00011102,8.722e-05,8.602e-05,9.752e-05,9.642e-05,9.736e-05,9.994e-05
724,7.406e-05,6.81e-05,7.528e-05,6.628e-05,7.216e-05,6.038e-05,6.014e-05,6.966e-05,7.102e-05,6.128e-05,7.904e-05,8.412e-05,9.304e-05,8.912e-05,9.236e-05,8.292e-05,8.256e-05,8.874e-05,8.394e-05,8.756e-05,4.702e-05,4.586e-05,4.528e-05,4.726e-05,4.648e-05,4.51e-05,4.626e-05,4.786e-05,4.804e-05,4.79e-05,8.812e-05,9.002e-05,0.00010356,0.000107,8.852e-05,8.242e-05,9.712e-05,9.37e-05,9.108e-05,9.42e-05
726,7.034e-05,6.772e-05,6.762e-05,6.572e-05,6.498e-05,6.122e-05,5.758e-05,6.794e-05,6.768e-05,5.496e-05,7.848e-05,8.648e-05,9.158e-05,9.052e-05,9.196e-05,8.256e-05,7.786e-05,9.076e-05,8.882e-05,8.252e-05,4.56e-05,4.636e-05,4.272e-05,4.6e-05,4.514e-05,4.326e-05,4.546e-05,4.614e-05,4.668e-05,4.762e-05,8.598e-05,8.762e-05,0.0001033,9.52e-05,7.892e-05,7.52e-05,9.022e-05,9.658e-05,8.8e-05,9.126e-05
728,6.974e-05,6.666e-05,6.346e-05,6.18e-05,6.644e-05,5.006e-05,5.854e-05,5.84e-05,6.486e-05,5.744e-05,7.292e-05,8.47e-05,8.986e-05,8.502e-05,9.158e-05,8.256e-05,7.826e-05,8.79e-05,8.416e-05,8.432e-05,4.774e-05,4.644e-05,4.008e-05,4.598e-05,4.546e-05,4.34e-05,4.678e-05,4.81e-05,4.556e-05,4.626e-05,7.924e-05,8.096e-05,9.506e-05,8.95e-05,8.446e-05,7.9e-05,8.994e-05,0.00010002,8.278e-05,8.638e-05
730,6.632e-05,6.128e-05,6.36e-05,5.712e-05,6.394e-05,5.17e-05,5.536e-05,6.072e-05,5.96e-05,5.33e-05,7.906e-05,7.804e-05,8.712e-05,8.326e-05,8.928e-05,8.034e-05,7.65e-05,8.89e-05,8.51e-05,8.06e-05,4.668e-05,4.736e-05,4.148e-05,4.542e-05,4.596e-05,4.27e-05,4.772e-05,4.73e-05,4.716e-05,4.646e-05,8.11e-05,8.588e-05,9.256e-05,8.334e-05,7.814e-05,7.742e-05,9.862e-05,9.516e-05,7.916e-05,8.338e-05
732,6.434e-05,6.19e-05,6.146e-05,5.62e-05,6.388e-05,5.338e-05,5.572e-05,6.056e-05,5.726e-05,5.218e-05,7.784e-05,8.004e-05,8.344e-05,8.326e-05,9.108e-05,8.076e-05,7.294e-05,8.848e-05,8.842e-05,7.878e-05,4.712e-05,4.506e-05,4.114e-05,4.498e-05,4.49e-05,4.43e-05,4.732e-05,4.798e-05,4.826e-05,4.45e-05,7.574e-05,8.692e-05,9.472e-05,8.782e-05,7.558e-05,7.186e-05,0.00010096,9.378e-05,8.264e-05,8.698e-05
734,5.714e-05,5.474e-05,6.072e-05,5.276e-05,6.004e-05,4.262e-05,5.044e-05,5.776e-05,5.44e-05,4.774e-05,7.746e-05,8.272e-05,7.586e-05,8.156e-05,8.938e-05,7.432e-05,6.966e-05,8.584e-05,8.314e-05,8.22e-05,4.468e-05,4.508e-05,4.094e-05,4.416e-05,4.248e-05,4.406e-05,4.696e-05,4.676e-05,4.472e-05,4.376e-05,7.828e-05,7.53e-05,8.636e-05,8.238e-05,6.33e-05,7.67e-05,9.392e-05,9.142e-05,8.298e-05,8.332e-05
736,5.176e-05,5.246e-05,5.664e-05,5.996e-05,5.278e-05,3.722e-05,3.952e-05,4.81e-05,4.678e-05,4.008e-05,7.326e-05,7.156e-05,7.248e-05,7.412e-05,8.18e-05,6.974e-05,6.152e-05,7.796e-05,7.622e-05,7.236e-05,3.94e-05,3.956e-05,3.702e-05,4.188e-05,3.708e-05,3.974e-05,4.264e-05,4.198e-05,4.128e-05,3.92e-05,8.034e-05,7.952e-05,6.876e-05,6.758e-05,5.442e-05,6.058e-05,7.786e-05,8.496e-05,7.322e-05,7.016e-05
738,4.304e-05,4.714e-05,4.612e-05,4.57e-05,4.63e-05,3.706e-05,3.184e-05,4.466e-05,3.296e-05,2.826e-05,6.828e-05,6.69e-05,6.294e-05,6.958e-05,7.728e-05,6.34e-05,5.576e-05,6.986e-05,7.438e-05,5.446e-05,3.412e-05,3.408e-05,3.106e-05,3.424e-05,3.356e-05,3.366e-05,3.768e-05,3.556e-05,3.796e-05,3.43e-05,6.394e-05,8.058e-05,5.996e-05,6.134e-05,6.978e-05,6.006e-05,6.926e-05,7.208e-05,6.42e-05,5.642e-05
740,2.826e-05,4.062e-05,3.932e-05,4.106e-05,3.998e-05,3.202e-05,3.002e-05,3.866e-05,2.542e-05,2.452e-05,6.6e-05,6.234e-05,5.978e-05,6.362e-05,7.316e-05,5.29e-05,5.022e-05,6.532e-05,6.234e-05,5.52e-05,3.074e-05,3.04e-05,2.77e-05,3.292e-05,2.966e-05,2.854e-05,3.052e-05,3.316e-05,3.632e-05,3.054e-05,5.666e-05,7.12e-05,4.874e-05,4.766e-05,6.78e-05,4.892e-05,6.768e-05,6.756e-05,5.524e-05,4.978e-05
742,2.596e-05,3.228e-05,3.118e-05,3.11e-05,3.07e-05,2.262e-05,2.224e-05,2.902e-05,2.68e-05,1.9694e-05,6.31e-05,6.408e-05,5.906e-05,5.888e-05,6.536e-05,4.516e-05,4.638e-05,6.224e-05,5.83e-05,5.35e-05,2.774e-05,2.834e-05,2.55e-05,3e-05,2.392e-05,2.43e-05,2.97e-05,3.016e-05,3.218e-05,2.552e-05,5.454e-05,6.022e-05,4.614e-05,3.174e-05,5.78e-05,3.84e-05,5.926e-05,6.55e-05,4.308e-05,4.776e-05
744,2.266e-05,3.35e-05,2.228e-05,3.208e-05,3.132e-05,2.576e-05,2.582e-05,2.516e-05,1.9468e-05,1.5566e-05,5.894e-05,5.794e-05,5.732e-05,5.518e-05,6.124e-05,4.288e-05,4.57e-05,5.824e-05,5.384e-05,5.802e-05,2.4e-05,2.702e-05,2.28e-05,2.994e-05,2.522e-05,2.206e-05,2.774e-05,2.608e-05,3.07e-05,2.246e-05,4.526e-05,5.314e-05,4.368e-05,2.966e-05,5.04e-05,3.384e-05,4.632e-05,4.808e-05,4.806e-05,4.044e-05
746,1.3768e-05,2.896e-05,2.584e-05,3.122e-05,2.36e-05,1.4832e-05,2.276e-05,2.424e-05,1.4066e-05,1.618e-05,6.104e-05,5.61e-05,5.714e-05,5.632e-05,5.72e-05,3.69e-05,4.494e-05,5.03e-05,5.374e-05,5.25e-05,2.17e-05,2.37e-05,2.302e-05,2.38e-05,1.9818e-05,1.9474e-05,2.69e-05,2.574e-05,2.806e-05,2.204e-05,4.522e-05,5.624e-05,2.558e-05,2.542e-05,4.278e-05,3.202e-05,4.716e-05,4.142e-05,2.404e-05,2.816e-05
748,1.433e-05,1.7556e-05,1.0298e-05,2.704e-05,1.9914e-05,1.6074e-05,1.9322e-05,2.418e-05,9.676e-06,1.0482e-05,5.426e-05,5.746e-05,5.188e-05,5.376e-05,5.572e-05,4.278e-05,3.96e-05,5.468e-05,5.42e-05,4.46e-05,2.028e-05,2.108e-05,2.342e-05,2.054e-05,1.9562e-05,1.8016e-05,1.8974e-05,2.438e-05,2.416e-05,1.8486e-05,4.642e-05,4.522e-05,2.706e-05,1.8146e-05,4.504e-05,3.57e-05,4.488e-05,2.746e-05,3.58e-05,3.374e-05
750,1.4926e-05,1.315e-05,8.468e-06,2.354e-05,2.156e-05,1.8814e-05,2.386e-05,2.068e-05,4.884e-06,7.736e-06,6.386e-05,5.014e-05,4.97e-05,5.446e-05,5.496e-05,4.014e-05,3.716e-05,5.468e-05,5.004e-05,5.436e-05,1.8434e-05,2.312e-05,2.18e-05,1.9734e-05,1.9628e-05,1.3596e-05,1.8196e-05,2.326e-05,2.674e-05,1.8258e-05,5.214e-05,5.098e-05,1.863e-05,2.036e-05,4.118e-05,3.202e-05,3.932e-05,2.424e-05,4.106e-05,3.654e-05
752,1.0446e-05,2.292e-05,1.8802e-05,3.196e-05,2.316e-05,1.9018e-05,3.47e-05,2.344e-05,1.2842e-06,1.3442e-05,6.24e-05,5.424e-05,4.698e-05,5.732e-05,4.994e-05,3.386e-05,3.476e-05,5.318e-05,4.442e-05,5.096e-05,2.144e-05,2.484e-05,2.246e-05,2.224e-05,2.11e-05,1.4436e-05,1.971e-05,2.382e-05,2.454e-05,1.825e-05,4.944e-05,4.1e-05,1.478e-05,1.9028e-05,3.546e-05,3.886e-05,5.204e-05,2.824e-05,2.616e-05,2.794e-05
754,1.6178e-05,9.316e-06,9.374e-06,2.144e-05,1.4506e-05,3.094e-05,2.184e-05,1.706e-05,7.952e-06,1.7574e-05,6.278e-05,6.166e-05,5.512e-05,5.63e-05,5.784e-05,3.264e-05,4.228e-05,5.332e-05,5.444e-05,5.284e-05,2.004e-05,2.17e-05,2.636e-05,1.8846e-05,2.32e-05,1.5538e-05,1.9514e-05,2.616e-05,2.78e-05,1.6242e-05,5.16e-05,3.184e-05,1.0066e-05,7.9e-06,3.734e-05,4.34e-05,4.014e-05,2.492e-05,2.912e-05,3.056e-05
756,8.18e-06,1.9712e-05,2.994e-06,2.47e-05,1.7848e-05,3.192e-05,2.456e-05,1.6472e-05,0,2.476e-05,7.124e-05,5.384e-05,4.882e-05,5.742e-05,5.482e-05,3.54e-05,4.632e-05,5.536e-05,5.068e-05,4.664e-05,2.246e-05,2.198e-05,2.506e-05,2e-05,2.026e-05,1.523e-05,2.192e-05,2.438e-05,2.708e-05,1.6946e-05,4.93e-05,3.658e-05,1.5722e-05,3.66e-06,3.33e-05,3.326e-05,4.598e-05,2.314e-05,3.694e-05,2.784e-05
758,6.572e-06,1.1214e-05,6.626e-06,3.166e-05,2.044e-05,3.478e-05,2.202e-05,2.21e-05,1.3428e-06,2.204e-05,7.874e-05,5.794e-05,5.174e-05,5.838e-05,4.258e-05,3.806e-05,4.212e-05,5.202e-05,5.536e-05,3.856e-05,2.124e-05,2.09e-05,2.564e-05,1.983e-05,1.9626e-05,1.5562e-05,2.146e-05,2.574e-05,2.494e-05,1.9232e-05,4.684e-05,4.674e-05,4.14e-06,4.182e-06,3.978e-05,2.786e-05,4.392e-05,1.7748e-05,2.622e-05,2.872e-05
760,1.1148e-05,1.8172e-05,7.768e-06,2.99e-05,2.204e-05,3.184e-05,1.2592e-05,2.684e-05,1.9828e-06,2.376e-05,6.992e-05,5.59e-05,4.98e-05,5.414e-05,4.554e-05,3.434e-05,4.758e-05,5.584e-05,5.442e-05,4.608e-05,1.9462e-05,2.082e-05,2.662e-05,2.36e-05,2.054e-05,1.6678e-05,1.806e-05,2.454e-05,2.766e-05,1.8426e-05,5.596e-05,3.56e-05,6.93e-06,1.5084e-05,6.73e-05,4.328e-05,2.738e-05,2.36e-05,3.532e-05,2.02e-05
762,1.1972e-05,1.4792e-05,2.352e-05,2.84e-05,1.3078e-05,4.702e-05,2.872e-05,2.106e-05,5.622e-07,1.4944e-05,7.284e-05,5.514e-05,5.04e-05,5.212e-05,4.25e-05,3.5e-05,4.786e-05,4.784e-05,5.752e-05,4.922e-05,2.304e-05,2.046e-05,2.936e-05,2.304e-05,2.452e-05,1.7436e-05,2.268e-05,2.234e-05,2.624e-05,2.324e-05,5.686e-05,3.322e-05,1.1728e-05,2.902e-05,5.494e-05,4.608e-05,4.838e-05,4.972e-06,2.87e-05,2.452e-05
764,1.2558e-05,1.6858e-05,1.879e-05,3.45e-05,2.022e-05,4.09e-05,2.142e-05,3.488e-05,5.448e-06,1.5992e-05,7.276e-05,4.896e-05,4.64e-05,5.032e-05,3.568e-05,3.634e-05,5.708e-05,5.088e-05,6.236e-05,5.42e-05,2.122e-05,2.236e-05,3.124e-05,2.058e-05,2.39e-05,1.646e-05,2.076e-05,2.686e-05,2.852e-05,2.494e-05,6.728e-05,4.34e-05,2.22e-05,3.126e-05,6.806e-05,3.86e-05,5.846e-05,1.9204e-05,3.136e-05,4.668e-05
766,1.709e-05,2.01e-05,2.216e-05,3.352e-05,3.062e-05,4.2e-05,3.542e-05,3.92e-05,1.9148e-05,3.042e-05,6.262e-05,4.308e-05,5.462e-05,4.862e-05,2.972e-05,4.09e-05,6.16e-05,5.892e-05,5.908e-05,5.682e-05,2.56e-05,1.9332e-05,3.088e-05,2.224e-05,2.312e-05,1.9014e-05,1.692e-05,2.544e-05,2.908e-05,2.13e-05,7.756e-05,3.572e-05,4.498e-05,2.38e-05,7.1e-05,4.36e-05,4.408e-05,3.034e-05,5.098e-05,5.368e-05
768,1.6912e-05,2.002e-05,2.02e-05,2.674e-05,2.566e-05,5.41e-05,3.876e-05,2.49e-05,1.6562e-05,2.802e-05,7.504e-05,4.25e-05,4.686e-05,4.98e-05,2.106e-05,3.458e-05,5.754e-05,4.98e-05,6.754e-05,6.096e-05,2.796e-05,1.9624e-05,3.314e-05,2.358e-05,2.496e-05,1.3058e-05,2.044e-05,2.738e-05,2.368e-05,2.392e-05,7.116e-05,3.816e-05,3.82e-05,2.738e-05,6.706e-05,5.394e-05,3.7e-05,2.714e-05,6.292e-05,3.008e-05
770,2.372e-05,1.5354e-05,4.456e-05,2.528e-05,2.92e-05,5.03e-05,3.798e-05,1.9002e-05,9.176e-06,3.72e-05,5.82e-05,3.87e-05,5.04e-05,4.374e-05,4.154e-05,4.532e-05,6.12e-05,6.356e-05,6.218e-05,5.206e-05,3.314e-05,1.9206e-05,3.168e-05,1.8716e-05,2.886e-05,2.4e-05,2.338e-05,3.05e-05,2.588e-05,2.43e-05,8.118e-05,6.244e-05,4.196e-05,4.41e-05,6.412e-05,5.17e-05,3.58e-05,7.602e-06,5.266e-05,4.28e-05
772,3.224e-05,2.122e-05,3.744e-05,3.19e-05,2.586e-05,5.2e-05,3.478e-05,1.8622e-05,2.02e-05,3.436e-05,5.338e-05,3.712e-05,5.158e-05,4.574e-05,3.13e-05,3.652e-05,6.88e-05,5.402e-05,5.708e-05,4.626e-05,2.816e-05,2.026e-05,2.804e-05,1.9942e-05,2.67e-05,1.8038e-05,1.8026e-05,2.488e-05,2.442e-05,2.308e-05,7.278e-05,6.004e-05,3.87e-05,3.69e-05,6.686e-05,6.472e-05,3.368e-05,2.306e-05,7.004e-05,3.934e-05
774,3.408e-05,2.496e-05,3.86e-05,3.764e-05,3.526e-05,4.828e-05,4.412e-05,2.038e-05,2.346e-05,2.962e-05,4.368e-05,2.498e-05,5.208e-05,4.264e-05,3.564e-05,3.564e-05,7.194e-05,4.968e-05,6.266e-05,4.572e-05,2.368e-05,2.512e-05,2.884e-05,1.7666e-05,2.31e-05,1.6954e-05,1.9416e-05,2.644e-05,1.7134e-05,2.444e-05,7.752e-05,7.556e-05,3.836e-05,4.634e-05,5.076e-05,6.22e-05,4.464e-05,2.952e-05,5.81e-05,4.922e-05
776,4.724e-05,1.704e-05,4.902e-05,5.14e-05,3.346e-05,5.562e-05,2.564e-05,3.144e-05,2.52e-05,3.74e-05,5.04e-05,2.542e-05,5.754e-05,4.694e-05,4.042e-05,5.094e-05,5.544e-05,5.026e-05,6.21e-05,4.832e-05,2.852e-05,1.6552e-05,2.956e-05,1.5568e-05,2.394e-05,2.514e-05,2.48e-05,2.184e-05,2.006e-05,2.918e-05,8.65e-05,3.402e-05,3.646e-05,6.572e-05,8.646e-05,5.89e-05,6.44e-05,5.336e-05,6.994e-05,8.938e-05
778,4.996e-05,3.182e-05,5.332e-05,3.57e-05,2.844e-05,4.766e-05,4.248e-05,4.658e-05,1.4812e-05,3.918e-05,4.52e-05,3.996e-05,5.574e-05,4.076e-05,3.8e-05,6.17e-05,7.304e-05,3.51e-05,6.986e-05,4.494e-05,2.258e-05,1.5102e-05,2.392e-05,2.456e-05,2.6e-05,1.9244e-05,2.442e-05,2.516e-05,1.5148e-05,2.996e-05,5.502e-05,5.858e-05,6.626e-05,7.386e-05,7.322e-05,8.018e-05,6.118e-05,6.638e-05,7.95e-05,7.284e-05
780,6.268e-05,2.468e-05,6.48e-05,2.276e-05,4.1e-05,3.472e-05,4.654e-05,4.618e-05,4.716e-05,4.304e-05,4.336e-05,3.258e-05,4.612e-05,4.978e-05,2.962e-05,6.758e-05,8.034e-05,4.73e-05,7.07e-05,3.874e-05,2.762e-05,1.8258e-05,2.772e-05,1.9248e-05,2.108e-05,2.32e-05,2.576e-05,2.392e-05,1.7512e-05,3.194e-05,7.254e-05,3.78e-05,6.99e-05,7.822e-05,7.418e-05,8.504e-05,5.766e-05,6.098e-05,6.474e-05,6.65e-05
