Wavelength [nm],Background (Mel),Modulation (Mel),Background (LMS),Modulation (LMS)380,1.3566e-05,1.6926e-05,6.632e-06,1.0346e-05,1.1058e-05,9.876e-06,2.398e-06,1.9036e-05,3.396e-06,1.746e-05,1.1164e-05,9.022e-06,1.307e-05,1.3246e-05,1.0276e-05,1.2792e-05,1.631e-05,9.546e-06,1.4546e-05,8.676e-06,3.654e-06,4.254e-06,4.612e-06,4.294e-06,4.922e-06,4.732e-06,2.854e-06,5.52e-06,3.44e-06,5.11e-06,2.67e-05,1.5826e-05,2.038e-05,9.35e-06,1.606e-05,2.054e-05,1.6894e-05,2.316e-05,1.298e-05,2.73e-05
382,1.1184e-05,1.2528e-05,3.108e-06,6.658e-06,1.134e-05,1.2864e-05,2.58e-06,1.6054e-05,5.048e-06,1.6474e-05,1.062e-05,1.2942e-05,1.3914e-05,1.636e-05,9.092e-06,1.0046e-05,1.4314e-05,9.684e-06,1.3918e-05,8.812e-06,2.926e-06,4.378e-06,5.4e-06,4.982e-06,5.5e-06,3.386e-06,3.502e-06,4.066e-06,3.286e-06,4.792e-06,1.5726e-05,2.006e-05,1.5776e-05,1.3104e-05,1.8142e-05,2.058e-05,1.6394e-05,2.166e-05,1.4038e-05,2.508e-05
384,7.912e-06,1.1052e-05,5.42e-06,1.1826e-05,1.425e-05,1.375e-05,2.17e-06,1.8916e-05,5.888e-06,1.455e-05,1.2418e-05,1.301e-05,1.6218e-05,1.511e-05,8.658e-06,1.0872e-05,1.7632e-05,1.0802e-05,1.5954e-05,1.0508e-05,2.408e-06,3.37e-06,4.01e-06,5.108e-06,4.99e-06,3.596e-06,4.402e-06,5.17e-06,3.124e-06,4.126e-06,1.7806e-05,2.02e-05,1.3632e-05,1.3356e-05,1.8312e-05,2.024e-05,2.01e-05,1.7784e-05,1.1926e-05,2.232e-05
386,1.2088e-05,9.228e-06,6.024e-06,1.0828e-05,1.4002e-05,1.338e-05,2.596e-06,1.8226e-05,5.15e-06,1.376e-05,7.206e-06,1.1434e-05,1.436e-05,1.4336e-05,9.346e-06,1.2378e-05,1.6754e-05,1.0084e-05,1.4646e-05,9.462e-06,2.616e-06,3.374e-06,4.808e-06,5.256e-06,4.768e-06,3.202e-06,4.17e-06,5.364e-06,3.636e-06,3.26e-06,1.7288e-05,1.7728e-05,1.5764e-05,1.2942e-05,1.7672e-05,1.7928e-05,1.8274e-05,1.4862e-05,1.3768e-05,2.328e-05
388,1.346e-05,1.2512e-05,8.452e-06,1.0672e-05,1.3192e-05,9.484e-06,3.166e-06,1.4592e-05,6.34e-06,1.4238e-05,8.706e-06,1.0166e-05,1.2128e-05,1.2594e-05,8.478e-06,1.2726e-05,1.5198e-05,1.1232e-05,1.3424e-05,9.278e-06,1.9776e-06,2.87e-06,4.758e-06,5.05e-06,4.518e-06,3.1e-06,4.758e-06,4.5e-06,3.586e-06,3.036e-06,1.5736e-05,1.8614e-05,1.741e-05,1.3288e-05,1.7754e-05,1.5342e-05,1.652e-05,1.296e-05,1.1338e-05,1.7828e-05
390,1.0706e-05,9.028e-06,8.232e-06,1.2042e-05,1.174e-05,9.22e-06,2.604e-06,1.3866e-05,6.372e-06,1.5954e-05,1.0784e-05,1.1642e-05,1.096e-05,1.4162e-05,1.0034e-05,1.1072e-05,1.5852e-05,8.316e-06,1.5002e-05,8.268e-06,2.668e-06,2.508e-06,4.63e-06,5.758e-06,4.306e-06,2.362e-06,4.93e-06,5.692e-06,2.562e-06,3.734e-06,1.9246e-05,1.7176e-05,1.9134e-05,1.2222e-05,1.4568e-05,1.7346e-05,1.5884e-05,1.3214e-05,1.4406e-05,1.7084e-05
392,9.328e-06,7.398e-06,7.906e-06,9.822e-06,1.447e-05,8.816e-06,5.09e-07,1.573e-05,7.556e-06,1.7086e-05,1.1924e-05,1.106e-05,1.077e-05,1.3352e-05,7.668e-06,1.1458e-05,1.5214e-05,8.784e-06,1.3626e-05,6.396e-06,3.27e-06,3.566e-06,4.768e-06,4.632e-06,4.452e-06,1.0886e-06,4.388e-06,4.132e-06,2.796e-06,2.562e-06,1.5444e-05,1.7192e-05,1.7516e-05,1.4218e-05,1.4046e-05,2.058e-05,1.7532e-05,1.1654e-05,1.4826e-05,1.9528e-05
394,1.0236e-05,7.71e-06,4.788e-06,6.642e-06,1.3308e-05,1.27e-05,1.9742e-06,1.3046e-05,5.236e-06,1.5688e-05,1.4396e-05,1.0034e-05,8.998e-06,8.748e-06,1.1624e-05,8.768e-06,1.6492e-05,9.59e-06,1.2024e-05,7.374e-06,2.632e-06,2.876e-06,4.28e-06,4.89e-06,3.97e-06,2.1e-06,4.994e-06,3.692e-06,3.35e-06,2.352e-06,1.7364e-05,7.322e-06,1.5404e-05,1.4292e-05,1.5592e-05,1.7998e-05,1.4808e-05,9.476e-06,1.047e-05,1.9056e-05
396,7.47e-06,9.44e-06,9.36e-06,5.884e-06,1.3516e-05,6.276e-06,6.242e-06,1.4942e-05,7.662e-06,1.3752e-05,1.1142e-05,1.104e-05,1.0032e-05,1.0006e-05,8.936e-06,1.2898e-05,1.346e-05,8.472e-06,1.396e-05,8.81e-06,2.292e-06,2.266e-06,4.67e-06,4.012e-06,5.032e-06,1.9448e-06,5.078e-06,4.19e-06,2.576e-06,3.278e-06,1.5992e-05,6.746e-06,1.6182e-05,9.424e-06,1.8628e-05,1.4214e-05,1.5394e-05,1.0744e-05,1.2934e-05,1.5766e-05
398,6.956e-06,8.23e-06,9.408e-06,7.936e-06,1.1716e-05,8.302e-06,8.026e-06,1.644e-05,4.908e-06,1.2288e-05,1.0004e-05,1.197e-05,9.244e-06,1.0078e-05,8.06e-06,1.0324e-05,1.2288e-05,8.406e-06,1.1866e-05,8.812e-06,2.144e-06,1.6962e-06,4.316e-06,4.42e-06,2.734e-06,1.1472e-06,3.926e-06,4.68e-06,3.002e-06,2.782e-06,1.2122e-05,1.0758e-05,1.6876e-05,1.4528e-05,1.542e-05,1.5288e-05,1.6894e-05,8.038e-06,1.1806e-05,1.8064e-05
400,1.045e-05,9.032e-06,8.888e-06,6.478e-06,1.2452e-05,1.0328e-05,6.704e-06,1.4938e-05,6.93e-06,1.5218e-05,9.652e-06,1.0008e-05,7.23e-06,9.478e-06,1.0248e-05,9.524e-06,1.2838e-05,8.982e-06,9.742e-06,8.268e-06,1.9862e-06,1.6368e-06,4.658e-06,5.008e-06,2.302e-06,1.7736e-06,4.292e-06,4.218e-06,3.136e-06,1.837e-06,1.3006e-05,1.3132e-05,1.587e-05,1.2086e-05,1.8232e-05,1.3004e-05,1.645e-05,8.476e-06,1.3226e-05,1.7322e-05
402,8.202e-06,6.288e-06,7.914e-06,6.594e-06,1.3114e-05,7.568e-06,6.772e-06,1.314e-05,7.49e-06,1.3322e-05,9.552e-06,1.2852e-05,7.854e-06,9.4e-06,1.051e-05,1.1482e-05,1.1502e-05,8.146e-06,9.96e-06,8.61e-06,2.442e-06,1.3628e-06,4.91e-06,4.818e-06,2.866e-06,9.436e-07,4.744e-06,4.312e-06,2.26e-06,2.176e-06,1.3334e-05,1.009e-05,1.6788e-05,1.2636e-05,1.5802e-05,1.2422e-05,1.7598e-05,6.692e-06,1.284e-05,1.4028e-05
404,8.584e-06,8.076e-06,7.8e-06,7.874e-06,1.0456e-05,5.442e-06,6.958e-06,1.2168e-05,7.136e-06,9.63e-06,8.148e-06,9.608e-06,6.44e-06,7.898e-06,8.676e-06,9.338e-06,1.0896e-05,7.394e-06,7.81e-06,7.03e-06,3.174e-06,8.48e-07,4.326e-06,4.356e-06,3.03e-06,7.89e-07,4.71e-06,3.594e-06,2.304e-06,1.8168e-06,1.1998e-05,1.239e-05,1.8036e-05,1.536e-05,1.1684e-05,1.517e-05,1.5618e-05,3.738e-06,1.2922e-05,1.6132e-05
406,8.224e-06,8.306e-06,8.386e-06,8.364e-06,8.452e-06,6.904e-06,6.426e-06,1.0774e-05,8.126e-06,9.65e-06,8.964e-06,7.918e-06,6.434e-06,7.7e-06,1.0182e-05,9.624e-06,1.0554e-05,5.184e-06,8.274e-06,8.092e-06,3.648e-06,2.268e-06,4.496e-06,4.62e-06,2.94e-06,9.594e-07,4.62e-06,3.906e-06,2.226e-06,2.268e-06,1.445e-05,1.4772e-05,1.5752e-05,1.6974e-05,1.214e-05,1.503e-05,1.861e-05,4.906e-06,1.1184e-05,1.3534e-05
408,6.854e-06,9.776e-06,9.002e-06,7.988e-06,1.0588e-05,6.584e-06,7.502e-06,9.448e-06,9.782e-06,1.0906e-05,6.87e-06,8.858e-06,5.232e-06,6.436e-06,8.796e-06,8.526e-06,1.0206e-05,6.394e-06,8.94e-06,7.19e-06,3.484e-06,1.9664e-06,4.096e-06,4.02e-06,2.95e-06,9.16e-07,4.506e-06,3.236e-06,2.768e-06,2.214e-06,1.4214e-05,1.5834e-05,1.9612e-05,1.2734e-05,1.5484e-05,1.6084e-05,1.8806e-05,9.882e-06,1.6536e-05,1.554e-05
410,6.84e-06,6.202e-06,1.423e-05,7.03e-06,8.578e-06,5.72e-06,8.24e-06,9.556e-06,9.608e-06,1.0908e-05,9.454e-06,8.144e-06,4.104e-06,5.668e-06,8.544e-06,7.172e-06,8.044e-06,8.186e-06,7.878e-06,6.68e-06,3.664e-06,2.138e-06,3.818e-06,3.498e-06,3.186e-06,9.874e-07,4.074e-06,3.35e-06,3.35e-06,1.8288e-06,1.4318e-05,1.2732e-05,1.9696e-05,1.484e-05,2.092e-05,1.7102e-05,1.6246e-05,1.0614e-05,1.5442e-05,1.5704e-05
412,9.416e-06,7.27e-06,7.896e-06,8.186e-06,1.0852e-05,8.312e-06,9.078e-06,1.0784e-05,1.2406e-05,1.3514e-05,1.1264e-05,9.24e-06,7.122e-06,7.512e-06,8.014e-06,8.684e-06,8.622e-06,4.872e-06,6.296e-06,7.088e-06,3.754e-06,2.036e-06,4.814e-06,3.498e-06,2.698e-06,1.4118e-06,3.538e-06,2.52e-06,3.124e-06,2.484e-06,1.7928e-05,1.542e-05,2.308e-05,1.5078e-05,1.82e-05,1.7194e-05,1.9504e-05,1.2336e-05,1.506e-05,1.6752e-05
414,1.5214e-05,1.1416e-05,1.6168e-05,1.3164e-05,1.3892e-05,1.033e-05,1.3966e-05,1.2384e-05,1.3026e-05,1.667e-05,1.042e-05,9.604e-06,9.364e-06,7.454e-06,9.244e-06,1.1588e-05,8.382e-06,5.644e-06,1.008e-05,1.0554e-05,3.684e-06,2.464e-06,4.702e-06,3.91e-06,2.63e-06,2.162e-06,3.814e-06,3.274e-06,3.226e-06,2.152e-06,2.048e-05,2.29e-05,2.662e-05,2.482e-05,2.664e-05,2.546e-05,2.416e-05,2.008e-05,1.8956e-05,1.672e-05
416,2.976e-05,2.492e-05,3.058e-05,2.682e-05,2.762e-05,2.224e-05,2.75e-05,2.51e-05,2.394e-05,2.696e-05,1.3932e-05,1.2198e-05,1.339e-05,1.1322e-05,1.5018e-05,1.34e-05,1.1268e-05,1.0648e-05,1.035e-05,1.337e-05,4.49e-06,3.154e-06,4.738e-06,4.22e-06,4.01e-06,2.258e-06,3.92e-06,3.49e-06,4.41e-06,2.468e-06,4.182e-05,4.24e-05,4.244e-05,4.424e-05,4.598e-05,4.086e-05,3.59e-05,3.646e-05,3.722e-05,3.53e-05
418,6.422e-05,6.176e-05,6.504e-05,6.288e-05,6.478e-05,5.364e-05,5.946e-05,5.68e-05,5.808e-05,5.9e-05,2.234e-05,2.022e-05,2.096e-05,1.8832e-05,2.344e-05,2.158e-05,1.9254e-05,1.7304e-05,1.8342e-05,1.9718e-05,5.522e-06,4.078e-06,5.828e-06,5.962e-06,4.928e-06,4.026e-06,5.358e-06,4.328e-06,5.024e-06,3.564e-06,8.748e-05,8.95e-05,8.97e-05,8.986e-05,8.866e-05,8.24e-05,8.028e-05,7.876e-05,7.898e-05,7.818e-05
420,0.00012656,0.0001223,0.00012556,0.0001256,0.00012634,0.00011076,0.00011834,0.00011534,0.00011656,0.000118,3.67e-05,3.506e-05,3.576e-05,3.458e-05,3.74e-05,3.47e-05,3.398e-05,3.07e-05,3.196e-05,3.348e-05,7.844e-06,6.774e-06,8.08e-06,7.25e-06,7.288e-06,6.21e-06,8.058e-06,6.116e-06,7.31e-06,5.896e-06,0.00016684,0.00017126,0.00017072,0.0001692,0.00017042,0.00016018,0.00015544,0.00015442,0.00015404,0.00015466
422,0.0002058,0.0002026,0.0002054,0.0002044,0.0002042,0.0001891,0.0001955,0.00019236,0.00019462,0.00019398,5.47e-05,5.49e-05,5.558e-05,5.41e-05,5.49e-05,5.328e-05,5.14e-05,5.018e-05,4.97e-05,5.372e-05,1.0826e-05,1.001e-05,1.0942e-05,1.012e-05,1.0908e-05,9.266e-06,1.0574e-05,9.626e-06,1.0454e-05,8.938e-06,0.000284,0.0002858,0.0002844,0.0002832,0.0002848,0.0002674,0.0002666,0.0002664,0.0002654,0.0002646
424,0.0002864,0.0002832,0.0002862,0.0002846,0.0002838,0.0002706,0.0002762,0.0002716,0.0002754,0.0002752,7.598e-05,7.3e-05,7.416e-05,7.384e-05,7.372e-05,7.272e-05,7.134e-05,7.05e-05,6.886e-05,7.354e-05,1.4864e-05,1.388e-05,1.5094e-05,1.3704e-05,1.3942e-05,1.279e-05,1.436e-05,1.3772e-05,1.4172e-05,1.2776e-05,0.0004342,0.0004358,0.0004342,0.000435,0.0004302,0.0004146,0.000412,0.0004122,0.0004102,0.000409
426,0.0003614,0.0003582,0.0003632,0.0003604,0.0003606,0.0003476,0.0003516,0.0003488,0.0003508,0.0003496,9.494e-05,9.148e-05,9.282e-05,9.172e-05,9.266e-05,9.236e-05,9.014e-05,8.904e-05,8.786e-05,9.062e-05,2.006e-05,1.9836e-05,2.028e-05,1.9138e-05,1.9624e-05,1.8952e-05,1.9024e-05,1.8664e-05,1.9422e-05,1.8736e-05,0.0006244,0.000625,0.000625,0.000625,0.0006232,0.000602,0.0005978,0.0006002,0.0005976,0.0005964
428,0.000425,0.000424,0.0004268,0.0004244,0.0004232,0.0004154,0.00042,0.000413,0.0004168,0.0004146,0.00011056,0.00010866,0.00010964,0.0001092,0.000109,0.00010948,0.00010704,0.00010476,0.00010522,0.00010824,2.652e-05,2.606e-05,2.612e-05,2.58e-05,2.55e-05,2.494e-05,2.534e-05,2.456e-05,2.612e-05,2.502e-05,0.0008402,0.0008456,0.000845,0.0008422,0.0008406,0.0008182,0.0008118,0.0008166,0.0008142,0.0008144
430,0.0004744,0.0004758,0.0004774,0.0004762,0.0004746,0.0004664,0.000471,0.000466,0.0004684,0.0004672,0.0001237,0.00012118,0.00012336,0.00012312,0.00012336,0.00012196,0.00011914,0.00011862,0.00011834,0.00012232,3.23e-05,3.204e-05,3.224e-05,3.136e-05,3.152e-05,3.164e-05,3.122e-05,3.09e-05,3.192e-05,3.132e-05,0.0010366,0.0010434,0.0010368,0.0010394,0.0010352,0.0010168,0.0010108,0.0010128,0.0010142,0.0010112
432,0.0005,0.0005016,0.0005032,0.000502,0.0004992,0.0004976,0.0005012,0.0004958,0.000498,0.000499,0.00013104,0.00012902,0.0001303,0.00013054,0.00012986,0.00013054,0.00012832,0.00012718,0.00012736,0.00013024,3.726e-05,3.666e-05,3.748e-05,3.608e-05,3.61e-05,3.674e-05,3.626e-05,3.65e-05,3.702e-05,3.634e-05,0.0011678,0.0011734,0.0011692,0.0011736,0.0011682,0.0011598,0.0011532,0.0011572,0.0011576,0.0011536
434,0.0004822,0.0004822,0.0004844,0.0004834,0.0004812,0.0004868,0.0004902,0.0004854,0.0004872,0.0004878,0.00012688,0.0001267,0.00012672,0.00012822,0.0001269,0.00012858,0.00012722,0.00012666,0.00012614,0.00012926,3.992e-05,4.02e-05,4.046e-05,3.916e-05,3.922e-05,4.02e-05,3.966e-05,3.964e-05,4.062e-05,4.03e-05,0.001216,0.0012232,0.0012174,0.001222,0.0012182,0.0012202,0.0012152,0.001217,0.0012186,0.001216
436,0.000405,0.0004034,0.0004062,0.0004052,0.0004046,0.0004164,0.0004202,0.0004152,0.000416,0.000417,0.00011134,0.0001096,0.0001109,0.00011068,0.00010998,0.0001151,0.000111,0.00011242,0.00011132,0.00011468,4.106e-05,4.15e-05,4.112e-05,4.064e-05,4.074e-05,4.222e-05,4.136e-05,4.108e-05,4.254e-05,4.212e-05,0.0011764,0.0011826,0.0011764,0.00118,0.0011768,0.0011912,0.0011866,0.0011902,0.0011898,0.0011854
438,0.0002852,0.000286,0.0002864,0.0002886,0.000288,0.000302,0.0003062,0.0002998,0.000302,0.0003026,8.612e-05,8.26e-05,8.418e-05,8.458e-05,8.374e-05,8.96e-05,8.628e-05,8.718e-05,8.626e-05,8.904e-05,4.096e-05,4.096e-05,4.082e-05,4.026e-05,4.074e-05,4.21e-05,4.076e-05,4.116e-05,4.208e-05,4.174e-05,0.0010682,0.001073,0.0010676,0.0010714,0.001068,0.001089,0.0010858,0.0010892,0.0010906,0.0010864
440,0.00016268,0.00016564,0.00016438,0.00016576,0.0001643,0.00017826,0.00018042,0.00017502,0.00017904,0.00017644,5.988e-05,5.692e-05,5.866e-05,5.834e-05,5.744e-05,6.208e-05,5.922e-05,5.984e-05,6.016e-05,6.192e-05,3.992e-05,4.052e-05,3.962e-05,3.896e-05,3.962e-05,4.07e-05,3.948e-05,3.952e-05,4.144e-05,4.064e-05,0.0009004,0.0009038,0.0008972,0.0009022,0.0008992,0.0009242,0.0009218,0.0009276,0.000928,0.0009248
442,8.326e-05,8.582e-05,8.762e-05,8.482e-05,8.5e-05,9.082e-05,9.362e-05,9.07e-05,9.258e-05,8.944e-05,4.408e-05,4.148e-05,4.27e-05,4.504e-05,4.116e-05,4.618e-05,4.238e-05,4.244e-05,4.37e-05,4.592e-05,3.73e-05,3.808e-05,3.768e-05,3.692e-05,3.706e-05,3.846e-05,3.73e-05,3.778e-05,3.916e-05,3.868e-05,0.0006782,0.0006816,0.0006768,0.0006792,0.0006794,0.0007072,0.0007038,0.0007082,0.000709,0.0007042
444,5.968e-05,6.266e-05,6.316e-05,6.024e-05,5.872e-05,6.25e-05,6.51e-05,6.204e-05,6.34e-05,6.104e-05,3.912e-05,3.906e-05,3.994e-05,3.998e-05,3.91e-05,4.186e-05,3.778e-05,3.954e-05,3.892e-05,3.982e-05,3.496e-05,3.692e-05,3.608e-05,3.56e-05,3.548e-05,3.716e-05,3.524e-05,3.548e-05,3.702e-05,3.692e-05,0.0004636,0.0004672,0.0004648,0.0004672,0.0004672,0.0004946,0.0004884,0.0004954,0.0004944,0.0004898
446,5.598e-05,5.896e-05,5.772e-05,5.744e-05,5.57e-05,5.762e-05,5.942e-05,5.528e-05,5.82e-05,5.568e-05,3.994e-05,3.984e-05,4.132e-05,4.104e-05,4.02e-05,4.234e-05,3.844e-05,3.958e-05,3.982e-05,3.982e-05,3.442e-05,3.6e-05,3.51e-05,3.454e-05,3.502e-05,3.624e-05,3.422e-05,3.488e-05,3.6e-05,3.588e-05,0.0002822,0.0002834,0.0002828,0.0002854,0.0002832,0.0003054,0.000302,0.0003064,0.0003052,0.0003014
448,5.796e-05,6.038e-05,5.94e-05,6.042e-05,6.12e-05,5.962e-05,6.238e-05,5.828e-05,5.962e-05,5.842e-05,4.32e-05,4.262e-05,4.382e-05,4.406e-05,4.26e-05,4.476e-05,4.108e-05,4.182e-05,4.344e-05,4.224e-05,3.626e-05,3.746e-05,3.632e-05,3.594e-05,3.628e-05,3.742e-05,3.574e-05,3.6e-05,3.682e-05,3.788e-05,0.00016996,0.00016978,0.00017148,0.00016972,0.00016628,0.00018194,0.00018074,0.00018516,0.00018286,0.00018082
450,6.406e-05,6.44e-05,6.428e-05,6.624e-05,6.566e-05,6.47e-05,6.672e-05,6.26e-05,6.416e-05,6.24e-05,4.588e-05,4.57e-05,4.782e-05,4.802e-05,4.546e-05,4.716e-05,4.584e-05,4.514e-05,4.68e-05,4.628e-05,3.946e-05,4.034e-05,3.968e-05,3.974e-05,3.906e-05,4.07e-05,3.892e-05,3.926e-05,4.044e-05,4.076e-05,0.00012774,0.0001293,0.00012782,0.00012784,0.00012396,0.00013008,0.00013028,0.0001359,0.00013438,0.00013172
452,6.582e-05,6.706e-05,6.732e-05,6.66e-05,6.736e-05,6.744e-05,6.902e-05,6.526e-05,6.616e-05,6.408e-05,4.686e-05,4.656e-05,4.99e-05,4.96e-05,4.794e-05,4.828e-05,4.718e-05,4.836e-05,4.844e-05,4.79e-05,4.172e-05,4.28e-05,4.204e-05,4.202e-05,4.24e-05,4.342e-05,4.186e-05,4.198e-05,4.322e-05,4.334e-05,0.00011704,0.0001201,0.00011816,0.0001164,0.0001133,0.00011654,0.00011834,0.00012156,0.00012294,0.00011898
454,6.466e-05,6.808e-05,6.502e-05,6.536e-05,6.732e-05,6.748e-05,6.76e-05,6.65e-05,6.604e-05,6.5e-05,4.808e-05,4.81e-05,4.672e-05,5.016e-05,4.592e-05,5.008e-05,4.686e-05,4.932e-05,4.804e-05,4.796e-05,4.308e-05,4.436e-05,4.298e-05,4.284e-05,4.338e-05,4.514e-05,4.292e-05,4.34e-05,4.426e-05,4.508e-05,0.00011422,0.00011372,0.00011268,0.00011246,0.00011122,0.00011512,0.00011504,0.00011854,0.0001168,0.00011506
456,6.428e-05,6.666e-05,6.582e-05,6.582e-05,6.696e-05,6.768e-05,6.83e-05,6.638e-05,6.646e-05,6.462e-05,4.654e-05,4.696e-05,4.888e-05,5.06e-05,4.778e-05,4.9e-05,4.824e-05,4.896e-05,4.998e-05,4.63e-05,4.506e-05,4.616e-05,4.47e-05,4.53e-05,4.53e-05,4.646e-05,4.474e-05,4.512e-05,4.634e-05,4.684e-05,0.00011262,0.00011178,0.00011022,0.00011096,0.0001091,0.0001128,0.00011372,0.00011694,0.00011896,0.00011412
458,6.75e-05,7.02e-05,6.806e-05,6.884e-05,6.832e-05,7.212e-05,7.056e-05,6.978e-05,6.844e-05,6.768e-05,4.876e-05,4.942e-05,4.968e-05,5.174e-05,4.862e-05,5.114e-05,4.92e-05,5.074e-05,5.112e-05,4.9e-05,4.768e-05,4.896e-05,4.77e-05,4.776e-05,4.86e-05,4.992e-05,4.838e-05,4.862e-05,4.924e-05,4.982e-05,0.00011448,0.0001158,0.00011428,0.00011346,0.00010986,0.00011424,0.00011482,0.00011848,0.00011718,0.0001148
460,6.99e-05,7.15e-05,7.088e-05,7.292e-05,7.004e-05,7.434e-05,7.306e-05,7.23e-05,7.154e-05,7.094e-05,4.958e-05,5.078e-05,5.098e-05,5.254e-05,5.008e-05,5.14e-05,5.088e-05,5.23e-05,5.192e-05,5.07e-05,5.098e-05,5.218e-05,5.114e-05,5.092e-05,5.158e-05,5.266e-05,5.19e-05,5.16e-05,5.216e-05,5.296e-05,0.00011748,0.00011598,0.00011554,0.00011548,0.00011044,0.00011626,0.0001173,0.0001183,0.00011934,0.0001175
462,7.354e-05,7.436e-05,7.342e-05,7.532e-05,7.434e-05,7.724e-05,7.614e-05,7.732e-05,7.556e-05,7.382e-05,5.016e-05,5.098e-05,5.206e-05,5.398e-05,5.052e-05,5.26e-05,5.196e-05,5.338e-05,5.338e-05,5.078e-05,5.412e-05,5.526e-05,5.41e-05,5.42e-05,5.474e-05,5.588e-05,5.51e-05,5.48e-05,5.526e-05,5.598e-05,0.0001174,0.00011568,0.00011732,0.0001158,0.00011424,0.00011908,0.00011764,0.00012134,0.00011866,0.00011928
464,7.742e-05,7.956e-05,7.722e-05,7.792e-05,7.766e-05,8e-05,7.892e-05,8.078e-05,8.008e-05,7.768e-05,5.07e-05,5.086e-05,5.206e-05,5.298e-05,5.108e-05,5.318e-05,5.188e-05,5.252e-05,5.374e-05,5.006e-05,5.726e-05,5.832e-05,5.718e-05,5.746e-05,5.826e-05,5.942e-05,5.856e-05,5.842e-05,5.872e-05,5.95e-05,0.0001214,0.00011906,0.00011992,0.00011778,0.00011728,0.0001207,0.00011992,0.00012412,0.00012332,0.0001238
466,8.178e-05,8.234e-05,8.052e-05,8.312e-05,8.342e-05,8.646e-05,8.388e-05,8.494e-05,8.316e-05,8.242e-05,5.148e-05,5.46e-05,5.378e-05,5.466e-05,5.202e-05,5.456e-05,5.23e-05,5.372e-05,5.422e-05,5.222e-05,6.248e-05,6.272e-05,6.184e-05,6.246e-05,6.27e-05,6.376e-05,6.298e-05,6.284e-05,6.284e-05,6.332e-05,0.00012502,0.00012632,0.00012594,0.00012468,0.00012186,0.00012562,0.00012684,0.00012814,0.00012752,0.00012838
468,8.97e-05,9.156e-05,8.81e-05,9.088e-05,9.104e-05,9.454e-05,8.904e-05,9.366e-05,9.074e-05,8.968e-05,5.448e-05,5.47e-05,5.41e-05,5.506e-05,5.342e-05,5.342e-05,5.6e-05,5.408e-05,5.616e-05,5.388e-05,6.776e-05,6.86e-05,6.794e-05,6.85e-05,6.878e-05,6.978e-05,6.838e-05,6.852e-05,6.9e-05,6.978e-05,0.00013266,0.0001344,0.00013442,0.00013242,0.0001315,0.00013148,0.0001339,0.00013454,0.00013542,0.00013686
470,9.17e-05,9.224e-05,8.996e-05,9.18e-05,9.15e-05,9.3e-05,9.166e-05,9.452e-05,9.156e-05,8.986e-05,5.264e-05,5.304e-05,5.406e-05,5.292e-05,5.252e-05,5.33e-05,5.398e-05,5.46e-05,5.446e-05,5.166e-05,6.98e-05,7.038e-05,6.966e-05,7.036e-05,7.088e-05,7.102e-05,7.092e-05,7.002e-05,7.096e-05,7.154e-05,0.00013554,0.00013302,0.00013208,0.00013374,0.00013192,0.00013322,0.0001345,0.00013592,0.0001369,0.00013708
472,8.974e-05,9.066e-05,8.904e-05,9.144e-05,9.056e-05,9.432e-05,9.024e-05,9.41e-05,8.994e-05,9.082e-05,5.08e-05,5.134e-05,5.148e-05,5.15e-05,4.992e-05,5.186e-05,5.308e-05,5.112e-05,5.298e-05,4.922e-05,7.034e-05,7.06e-05,7.004e-05,7.038e-05,7.104e-05,7.124e-05,7.086e-05,7.092e-05,7.088e-05,7.19e-05,0.00013212,0.00013044,0.00012964,0.0001286,0.0001295,0.0001325,0.00013388,0.00013388,0.00013332,0.00013366
474,8.868e-05,8.818e-05,8.768e-05,8.956e-05,8.916e-05,9.206e-05,8.856e-05,9.296e-05,8.88e-05,9.016e-05,4.91e-05,4.946e-05,4.992e-05,4.946e-05,4.892e-05,4.93e-05,5.052e-05,4.912e-05,5.112e-05,4.836e-05,6.978e-05,7.016e-05,6.998e-05,7.018e-05,7.058e-05,7.078e-05,7.092e-05,7.042e-05,7.072e-05,7.118e-05,0.00012744,0.00012608,0.0001284,0.00012252,0.00012574,0.00012856,0.00013042,0.00012962,0.00013034,0.00013042
476,8.56e-05,8.634e-05,8.438e-05,8.622e-05,8.592e-05,8.792e-05,8.464e-05,8.778e-05,8.55e-05,8.696e-05,4.624e-05,4.688e-05,4.646e-05,4.526e-05,4.562e-05,4.718e-05,4.81e-05,4.71e-05,4.772e-05,4.672e-05,6.694e-05,6.724e-05,6.718e-05,6.766e-05,6.802e-05,6.842e-05,6.866e-05,6.79e-05,6.796e-05,6.858e-05,0.0001214,0.00012006,0.0001206,0.00011682,0.00011966,0.00012296,0.00012292,0.00012204,0.00012258,0.00012496
478,8.37e-05,8.252e-05,8.28e-05,8.678e-05,8.402e-05,8.684e-05,8.142e-05,8.746e-05,8.486e-05,8.514e-05,4.456e-05,4.62e-05,4.586e-05,4.392e-05,4.54e-05,4.574e-05,4.85e-05,4.75e-05,4.726e-05,4.596e-05,6.63e-05,6.626e-05,6.57e-05,6.704e-05,6.71e-05,6.764e-05,6.756e-05,6.696e-05,6.69e-05,6.732e-05,0.00011614,0.00011548,0.00011698,0.00011488,0.00011816,0.00011936,0.00011892,0.00012038,0.00011704,0.00012108
480,8.818e-05,8.48e-05,8.622e-05,8.98e-05,8.576e-05,8.966e-05,8.588e-05,9.13e-05,8.61e-05,8.676e-05,4.798e-05,5.022e-05,4.888e-05,4.814e-05,5.016e-05,4.842e-05,5.204e-05,4.962e-05,5.124e-05,4.874e-05,6.898e-05,6.868e-05,6.878e-05,6.992e-05,6.97e-05,7.044e-05,7.106e-05,6.978e-05,7.002e-05,7.004e-05,0.00011698,0.00011584,0.00011978,0.00011758,0.00012108,0.00011934,0.00012436,0.0001196,0.0001212,0.00012266
482,9.242e-05,9.016e-05,8.984e-05,9.386e-05,9.052e-05,9.53e-05,9.074e-05,9.366e-05,9.102e-05,9.07e-05,5.342e-05,5.63e-05,5.408e-05,5.364e-05,5.388e-05,5.414e-05,5.786e-05,5.54e-05,5.31e-05,5.29e-05,7.3e-05,7.3e-05,7.36e-05,7.43e-05,7.404e-05,7.446e-05,7.534e-05,7.348e-05,7.45e-05,7.472e-05,0.00012254,0.00012086,0.00012464,0.00012432,0.00012552,0.00012444,0.00012428,0.00012304,0.00012638,0.00012464
484,9.302e-05,8.962e-05,9.14e-05,9.262e-05,9.144e-05,9.318e-05,8.996e-05,9.364e-05,9.13e-05,9.178e-05,5.886e-05,6.07e-05,6.004e-05,5.79e-05,5.958e-05,5.862e-05,6.092e-05,5.952e-05,6.108e-05,5.788e-05,7.588e-05,7.518e-05,7.58e-05,7.648e-05,7.644e-05,7.622e-05,7.74e-05,7.556e-05,7.606e-05,7.662e-05,0.00012216,0.00012072,0.00012624,0.0001215,0.00012474,0.00012478,0.00012598,0.00012546,0.00012416,0.00012688
486,9.082e-05,8.748e-05,9.078e-05,9.208e-05,8.944e-05,9.308e-05,8.966e-05,9.432e-05,8.824e-05,9.078e-05,6.916e-05,7.062e-05,6.994e-05,6.824e-05,7.12e-05,6.7e-05,6.966e-05,6.894e-05,6.92e-05,6.712e-05,7.892e-05,7.822e-05,7.862e-05,7.936e-05,7.974e-05,7.822e-05,7.976e-05,7.838e-05,7.826e-05,7.912e-05,0.00011894,0.00011864,0.0001236,0.00012034,0.00012206,0.00012262,0.0001244,0.00012256,0.00012266,0.00012518
488,9.06e-05,8.892e-05,9.074e-05,9.092e-05,8.924e-05,9.224e-05,8.98e-05,9.298e-05,8.772e-05,9.01e-05,0.00011154,0.00011188,0.00011056,0.00010938,0.00011164,0.00010194,0.00010324,0.00010354,0.00010368,0.00010208,9.642e-05,9.596e-05,9.634e-05,9.68e-05,9.68e-05,9.27e-05,9.414e-05,9.262e-05,9.28e-05,9.376e-05,0.00012534,0.00012338,0.0001246,0.00012256,0.00012552,0.00012632,0.00012626,0.00012522,0.00012452,0.000127
490,9.538e-05,9.302e-05,9.488e-05,9.412e-05,9.324e-05,9.566e-05,9.358e-05,9.73e-05,9.272e-05,9.434e-05,0.0002648,0.0002654,0.0002632,0.000261,0.0002622,0.000232,0.0002348,0.0002338,0.0002346,0.0002326,0.00016784,0.00016796,0.00016838,0.0001681,0.00016822,0.00015334,0.00015532,0.00015338,0.00015412,0.00015452,0.00013922,0.00013774,0.00013896,0.0001389,0.00014156,0.0001389,0.00014188,0.00013986,0.00014014,0.00014004
492,0.00010192,9.996e-05,0.0001015,0.00010182,9.922e-05,0.0001028,0.00010156,0.00010298,9.952e-05,0.00010258,0.0006488,0.0006492,0.000647,0.0006436,0.0006456,0.0005758,0.0005832,0.0005808,0.000582,0.0005804,0.0003552,0.0003552,0.0003556,0.0003552,0.0003548,0.0003208,0.0003238,0.0003226,0.0003226,0.000323,0.00017326,0.00017066,0.00017334,0.00017024,0.00017404,0.00016868,0.00017152,0.00017042,0.00016922,0.0001724
494,0.00010434,0.00010298,0.00010528,0.00010648,0.00010566,0.00010788,0.00010526,0.0001073,0.00010442,0.00010626,0.0013338,0.0013336,0.0013332,0.0013284,0.0013296,0.0012356,0.0012406,0.0012414,0.0012394,0.0012378,0.0006922,0.0006916,0.000692,0.000691,0.0006902,0.0006428,0.0006458,0.0006442,0.0006446,0.0006446,0.000223,0.0002212,0.0002238,0.0002208,0.0002226,0.000219,0.0002196,0.0002148,0.0002174,0.0002178
496,0.00011128,0.00010744,0.00011156,0.0001117,0.00011184,0.00011354,0.00011008,0.00011282,0.00010828,0.0001115,0.00207,0.00207,0.00207,0.002064,0.002066,0.0019718,0.0019754,0.001974,0.0019714,0.0019696,0.0010298,0.0010296,0.0010296,0.00103,0.0010274,0.0009842,0.0009868,0.0009848,0.0009846,0.0009836,0.0002682,0.0002656,0.0002702,0.0002672,0.000272,0.0002648,0.0002668,0.0002626,0.0002626,0.0002626
498,0.00012808,0.0001248,0.0001282,0.0001285,0.00012796,0.000125,0.00012384,0.0001264,0.00012342,0.00012442,0.002774,0.002776,0.002776,0.00277,0.002772,0.002688,0.002688,0.002686,0.002684,0.00268,0.0012916,0.0012918,0.0012918,0.0012926,0.00129,0.0012608,0.0012634,0.0012602,0.0012602,0.0012586,0.000303,0.0003026,0.0003068,0.000303,0.0003058,0.0003022,0.000304,0.0002982,0.0003002,0.0003018
500,0.00015792,0.00015542,0.0001579,0.0001584,0.00015814,0.00015214,0.0001532,0.00015356,0.00015218,0.0001514,0.003416,0.003418,0.003416,0.003412,0.003414,0.003342,0.003344,0.00334,0.003338,0.003334,0.0014576,0.0014578,0.0014578,0.0014592,0.0014568,0.0014414,0.001444,0.0014406,0.00144,0.0014386,0.000325,0.0003248,0.0003282,0.0003238,0.0003256,0.0003254,0.0003268,0.0003222,0.0003218,0.0003252
502,0.00019242,0.00019092,0.0001926,0.00019458,0.00019432,0.00018944,0.00018894,0.00018894,0.00018772,0.00018954,0.003964,0.003966,0.003964,0.003962,0.003962,0.003906,0.003904,0.003898,0.0039,0.003894,0.0015512,0.0015516,0.0015518,0.0015536,0.0015506,0.001543,0.0015448,0.0015422,0.0015408,0.0015398,0.0003354,0.0003352,0.0003416,0.0003374,0.0003408,0.0003398,0.0003392,0.000335,0.0003342,0.000339
504,0.000219,0.0002196,0.0002228,0.0002224,0.000221,0.000221,0.0002176,0.000218,0.0002184,0.0002196,0.004364,0.004366,0.004364,0.004364,0.004364,0.004324,0.00432,0.004316,0.004318,0.004314,0.0016002,0.0016012,0.001601,0.0016026,0.0015998,0.0015946,0.0015962,0.0015948,0.001594,0.0015932,0.0003446,0.0003448,0.0003462,0.000345,0.000346,0.0003466,0.000345,0.0003414,0.0003438,0.0003488
506,0.0002346,0.000235,0.0002372,0.0002384,0.0002352,0.0002356,0.000235,0.000233,0.0002342,0.000235,0.004516,0.004518,0.004516,0.004518,0.004518,0.004512,0.00451,0.004508,0.004514,0.004512,0.0015886,0.0015898,0.00159,0.0015914,0.0015886,0.0015922,0.0015954,0.0015946,0.001595,0.0015944,0.0003388,0.0003388,0.000342,0.0003416,0.0003408,0.000344,0.0003428,0.000339,0.0003418,0.000344
508,0.000242,0.0002402,0.0002428,0.0002422,0.0002402,0.0002422,0.0002422,0.0002406,0.0002408,0.0002428,0.004302,0.004304,0.004302,0.004308,0.004308,0.004354,0.00436,0.00436,0.004368,0.004366,0.0014426,0.001444,0.0014442,0.0014464,0.0014434,0.0014738,0.0014776,0.0014776,0.0014776,0.0014774,0.000312,0.0003118,0.0003156,0.0003136,0.0003148,0.0003216,0.000321,0.0003182,0.0003178,0.0003234
510,0.0002426,0.0002432,0.0002448,0.0002458,0.000243,0.0002448,0.0002436,0.0002432,0.000245,0.000246,0.003732,0.003734,0.003732,0.003738,0.00374,0.00384,0.003844,0.003846,0.003854,0.003852,0.001128,0.0011298,0.0011308,0.0011328,0.00113,0.001189,0.0011918,0.0011924,0.001192,0.0011916,0.0002672,0.0002666,0.0002692,0.0002682,0.0002676,0.000279,0.0002782,0.0002758,0.0002754,0.0002816
512,0.000238,0.0002388,0.000241,0.000242,0.0002392,0.000241,0.0002412,0.000241,0.0002438,0.000244,0.00295,0.002952,0.00295,0.002956,0.002958,0.003084,0.003086,0.003086,0.003094,0.003092,0.0007258,0.0007272,0.0007282,0.0007304,0.0007278,0.0007918,0.0007938,0.000794,0.0007934,0.000793,0.0002208,0.0002216,0.0002244,0.0002224,0.0002208,0.0002326,0.0002318,0.0002288,0.00023,0.0002328
514,0.0002214,0.000221,0.0002238,0.0002244,0.000223,0.0002282,0.0002302,0.0002284,0.0002296,0.0002298,0.002164,0.002164,0.002162,0.00217,0.002172,0.00229,0.00229,0.00229,0.002294,0.002292,0.0004044,0.0004048,0.0004056,0.000407,0.0004054,0.0004472,0.0004486,0.0004488,0.0004476,0.0004472,0.00019356,0.0001936,0.00019802,0.00019444,0.000193,0.000202,0.0002006,0.0001971,0.0002008,0.0002024
516,0.0001943,0.00019456,0.0001947,0.000196,0.00019486,0.000202,0.0002012,0.0002008,0.0002028,0.0002004,0.0014838,0.0014842,0.001483,0.0014874,0.0014898,0.0015874,0.0015888,0.0015868,0.0015892,0.0015876,0.0002474,0.0002478,0.0002488,0.0002488,0.0002474,0.0002652,0.0002654,0.0002656,0.0002648,0.000264,0.00018486,0.0001846,0.00018708,0.00018658,0.0001841,0.00018972,0.00018804,0.0001853,0.00018874,0.00018906
518,0.00016382,0.0001641,0.00016618,0.00016778,0.00016478,0.00017,0.0001713,0.00016882,0.00017192,0.00017066,0.000899,0.0008996,0.0008992,0.0009018,0.0009034,0.000977,0.000975,0.0009722,0.0009736,0.0009728,0.00019996,0.0002002,0.0002004,0.0002002,0.0001998,0.0002054,0.000206,0.0002058,0.0002048,0.0002048,0.00018384,0.00018538,0.0001852,0.00018418,0.00018234,0.0001885,0.00018542,0.00018296,0.0001846,0.00018568
520,0.0001487,0.00014968,0.0001497,0.00015092,0.00014894,0.0001516,0.00015276,0.00015148,0.0001542,0.00015254,0.0005316,0.0005316,0.000531,0.0005328,0.0005324,0.0005736,0.0005722,0.0005696,0.0005702,0.0005704,0.0001894,0.00019004,0.0001898,0.00018988,0.0001889,0.00019248,0.00019256,0.00019296,0.00019122,0.00019104,0.00018456,0.00018562,0.0001867,0.00018444,0.00018322,0.00018676,0.00018758,0.00018514,0.00018624,0.00018608
522,0.00014474,0.0001463,0.0001466,0.00014794,0.00014516,0.0001474,0.00014828,0.00014586,0.00014908,0.00014744,0.0003768,0.000376,0.0003766,0.0003778,0.0003768,0.000393,0.0003918,0.0003914,0.00039,0.0003912,0.00018332,0.00018336,0.00018374,0.00018338,0.00018338,0.00018608,0.00018566,0.00018574,0.0001848,0.00018462,0.00018632,0.00018702,0.00018674,0.00018416,0.00018286,0.00018692,0.0001867,0.0001859,0.00018548,0.00018648
524,0.0001458,0.0001484,0.00014764,0.0001488,0.0001458,0.00014718,0.0001478,0.00014632,0.00014868,0.00014728,0.000326,0.0003238,0.0003246,0.0003248,0.0003236,0.000331,0.0003286,0.0003296,0.000328,0.0003288,0.00017686,0.00017702,0.000177,0.00017712,0.0001767,0.00017868,0.00017872,0.000179,0.00017828,0.00017788,0.00018452,0.00018722,0.00018526,0.00018298,0.0001831,0.00018524,0.00018524,0.00018418,0.00018472,0.00018742
526,0.0001486,0.00015002,0.00014998,0.0001507,0.00014872,0.00014826,0.00015124,0.00014888,0.0001523,0.00014988,0.0003046,0.0003024,0.0003026,0.0003038,0.000302,0.0003066,0.000305,0.0003054,0.0003046,0.000307,0.000171,0.00017142,0.000171,0.00017118,0.00017096,0.00017228,0.00017202,0.00017298,0.00017246,0.00017178,0.00018112,0.0001839,0.00018388,0.00018184,0.0001808,0.0001846,0.0001836,0.00018096,0.00018368,0.00018634
528,0.00015082,0.00015256,0.00015128,0.000152,0.0001506,0.00015132,0.00015166,0.00014904,0.00015448,0.00015136,0.000287,0.0002852,0.0002848,0.0002868,0.0002848,0.000289,0.0002876,0.0002892,0.000288,0.0002894,0.00016528,0.0001654,0.00016572,0.00016526,0.00016492,0.00016672,0.00016662,0.0001672,0.00016674,0.00016676,0.000177,0.00018126,0.0001795,0.00017944,0.00017686,0.00018216,0.0001808,0.00017846,0.00018098,0.00018154
530,0.00015246,0.00015422,0.00015356,0.00015174,0.00015322,0.00015146,0.00015436,0.00015302,0.00015604,0.00015368,0.0002684,0.0002678,0.0002672,0.0002692,0.0002664,0.0002698,0.0002686,0.0002698,0.000271,0.0002704,0.00016056,0.00016014,0.00016032,0.00015996,0.0001602,0.00016132,0.00016078,0.00016176,0.00016184,0.00016122,0.00017012,0.00017376,0.0001732,0.0001725,0.00017012,0.00017346,0.0001745,0.00017308,0.00017414,0.0001747
532,0.00015562,0.00015652,0.00015544,0.00015356,0.00015478,0.00015356,0.00015762,0.00015564,0.00015896,0.00015664,0.0002534,0.0002534,0.000253,0.0002556,0.0002526,0.0002566,0.000256,0.000257,0.0002574,0.0002582,0.00015786,0.0001574,0.0001575,0.00015762,0.0001576,0.00015888,0.00015866,0.000159,0.0001589,0.0001586,0.00016558,0.00016844,0.00016678,0.00016582,0.0001643,0.00016714,0.00016784,0.0001658,0.00016982,0.00016812
534,0.00015566,0.00015628,0.00015582,0.00015548,0.00015462,0.0001561,0.00015826,0.00015646,0.00016118,0.00015886,0.000243,0.0002422,0.0002416,0.0002438,0.000241,0.0002452,0.0002446,0.0002452,0.0002454,0.0002454,0.00015578,0.00015562,0.00015608,0.00015592,0.00015574,0.00015766,0.0001572,0.00015756,0.00015734,0.00015702,0.00015884,0.00016202,0.00015844,0.00015936,0.00015744,0.00016186,0.00016124,0.00016018,0.0001621,0.00016126
536,0.00015646,0.00015768,0.00015552,0.0001562,0.00015592,0.00015708,0.00015786,0.00015686,0.00016174,0.00015882,0.0002324,0.000232,0.0002314,0.000234,0.000231,0.0002356,0.0002348,0.0002346,0.000235,0.000236,0.00015464,0.00015452,0.00015478,0.00015474,0.00015434,0.00015672,0.0001562,0.00015684,0.00015634,0.00015612,0.00014998,0.00015454,0.00015122,0.0001515,0.00015088,0.00015344,0.00015462,0.00015356,0.00015536,0.00015382
538,0.00015682,0.00015794,0.00015532,0.00015628,0.00015568,0.0001579,0.00015842,0.0001571,0.00016044,0.00015932,0.0002252,0.0002246,0.000225,0.0002272,0.0002254,0.0002284,0.0002278,0.0002278,0.000227,0.0002282,0.00015418,0.00015396,0.00015428,0.00015476,0.0001542,0.00015642,0.00015582,0.00015656,0.0001561,0.00015556,0.00014302,0.00014788,0.00014414,0.00014412,0.00014346,0.00014866,0.00014822,0.00014784,0.0001488,0.00014622
540,0.00015436,0.00015494,0.0001528,0.00015418,0.00015428,0.0001565,0.0001567,0.00015598,0.0001596,0.00015702,0.0002204,0.0002192,0.000219,0.0002222,0.00022,0.0002232,0.0002226,0.0002222,0.0002222,0.000222,0.0001545,0.00015468,0.00015452,0.00015512,0.00015444,0.00015674,0.00015572,0.0001564,0.0001559,0.00015568,0.00013968,0.0001427,0.00013996,0.00014092,0.00014088,0.0001431,0.0001447,0.00014266,0.00014456,0.0001415
542,0.00015036,0.00015298,0.00014898,0.00015064,0.00015132,0.0001528,0.0001519,0.00015196,0.00015472,0.00015406,0.0002154,0.000215,0.0002154,0.0002186,0.0002154,0.0002184,0.000217,0.0002172,0.0002174,0.0002172,0.00015538,0.00015546,0.00015552,0.00015532,0.00015508,0.00015672,0.00015606,0.00015668,0.00015578,0.00015544,0.00013804,0.00014202,0.00013896,0.0001395,0.00013914,0.00013948,0.00014076,0.00013876,0.00014018,0.0001393
544,0.0001452,0.000147,0.0001464,0.00014714,0.00014608,0.00014802,0.00014704,0.00014638,0.0001505,0.00014808,0.0002146,0.0002142,0.0002136,0.0002166,0.0002142,0.0002162,0.000214,0.0002142,0.0002156,0.0002156,0.0001567,0.00015726,0.00015708,0.00015744,0.00015716,0.00015794,0.00015722,0.00015772,0.00015734,0.00015672,0.00014094,0.00014198,0.00013956,0.00014156,0.00013982,0.00014016,0.00014048,0.00013988,0.00014144,0.00013902
546,0.00013776,0.00014006,0.00013818,0.00013828,0.00013918,0.00014012,0.00013998,0.00013966,0.0001427,0.00014078,0.0002128,0.0002122,0.0002122,0.0002148,0.0002122,0.0002148,0.0002126,0.0002122,0.0002138,0.0002132,0.00015784,0.00015786,0.00015828,0.0001584,0.00015818,0.00015854,0.00015786,0.00015834,0.00015794,0.0001576,0.00014512,0.00014682,0.0001441,0.00014562,0.00014472,0.00014492,0.0001445,0.0001451,0.00014548,0.00014268
548,0.00012968,0.00013182,0.00012934,0.00012956,0.00013042,0.0001317,0.0001326,0.00013162,0.00013286,0.00013292,0.0002114,0.000211,0.0002106,0.0002138,0.0002114,0.000213,0.0002116,0.0002108,0.0002124,0.0002112,0.00015888,0.00015894,0.00015926,0.00015946,0.00015914,0.00015936,0.00015872,0.00015918,0.000159,0.00015906,0.00015164,0.00015492,0.00015142,0.00015266,0.00015294,0.00015108,0.000152,0.000151,0.00015272,0.0001491
550,0.00012256,0.0001228,0.00012228,0.00012224,0.00012296,0.0001242,0.00012368,0.00012278,0.00012506,0.00012474,0.0002098,0.00021,0.0002094,0.000213,0.0002114,0.0002124,0.00021,0.0002108,0.000212,0.0002108,0.0001596,0.00016036,0.00016028,0.00016102,0.00016054,0.00016064,0.0001599,0.00016078,0.00016052,0.00016084,0.00016336,0.00016464,0.00016158,0.0001644,0.00016458,0.00015922,0.00016238,0.00016134,0.00016314,0.00015952
552,0.0001151,0.0001162,0.00011422,0.000115,0.00011688,0.00011622,0.00011612,0.00011522,0.00011782,0.00011682,0.0002096,0.0002098,0.0002106,0.0002122,0.0002108,0.0002114,0.00021,0.0002102,0.0002124,0.0002118,0.00016086,0.00016138,0.00016172,0.00016174,0.00016118,0.00016128,0.00016112,0.00016164,0.00016168,0.00016206,0.00018304,0.00018466,0.00018218,0.00018322,0.0001841,0.00018018,0.0001813,0.00018138,0.00018048,0.00017814
554,0.00010714,0.00011044,0.0001093,0.00010864,0.0001099,0.0001099,0.00011028,0.00011038,0.00010998,0.00011072,0.0002092,0.0002106,0.000209,0.000212,0.00021,0.0002118,0.0002098,0.000211,0.0002128,0.0002124,0.00016166,0.00016208,0.0001623,0.00016244,0.00016198,0.00016192,0.00016158,0.00016262,0.00016302,0.00016296,0.0002498,0.0002522,0.0002488,0.0002498,0.0002494,0.0002352,0.000237,0.000237,0.0002382,0.000235
556,0.00010684,0.00010786,0.00010666,0.00010722,0.00010718,0.00010746,0.0001074,0.00010794,0.0001066,0.00010752,0.0002094,0.000211,0.0002086,0.000213,0.00021,0.0002126,0.0002114,0.0002106,0.0002132,0.0002126,0.0001618,0.00016228,0.00016242,0.00016272,0.0001625,0.00016302,0.00016274,0.00016322,0.00016402,0.000164,0.0004384,0.000441,0.000437,0.0004374,0.0004362,0.0004044,0.0004042,0.0004048,0.0004052,0.0004016
558,0.00010706,0.0001077,0.00010534,0.00010766,0.00010798,0.00010764,0.00010768,0.00010824,0.00010734,0.00010724,0.000208,0.0002104,0.0002086,0.0002116,0.0002106,0.0002118,0.0002116,0.0002108,0.0002136,0.0002128,0.0001619,0.000162,0.00016242,0.00016242,0.00016202,0.00016324,0.0001632,0.00016356,0.00016376,0.000164,0.0008262,0.0008298,0.0008248,0.0008228,0.0008222,0.0007646,0.0007644,0.0007656,0.0007674,0.0007618
560,0.00010928,0.0001099,0.00010838,0.00011062,0.00011024,0.000111,0.00011032,0.00011064,0.00010954,0.00010944,0.000207,0.0002104,0.0002088,0.00021,0.0002098,0.0002116,0.0002108,0.0002108,0.0002132,0.000212,0.00016142,0.0001615,0.00016186,0.00016216,0.0001616,0.00016278,0.00016302,0.00016324,0.00016384,0.00016358,0.0014208,0.001425,0.0014174,0.0014156,0.0014134,0.0013344,0.001331,0.0013356,0.0013358,0.00133
562,0.0001166,0.00011756,0.00011624,0.00011792,0.00011744,0.00011852,0.0001168,0.00011794,0.00011564,0.00011548,0.0002054,0.0002084,0.0002078,0.0002088,0.0002078,0.0002114,0.000209,0.0002098,0.0002116,0.0002096,0.00016036,0.00016068,0.00016072,0.000161,0.00016052,0.00016202,0.00016244,0.00016238,0.0001623,0.00016212,0.00223,0.002236,0.002226,0.002224,0.00222,0.002116,0.002112,0.002114,0.00211,0.002104
564,0.00014046,0.00014216,0.00014086,0.00014308,0.00014186,0.00013924,0.00013712,0.00013724,0.00013658,0.00013466,0.000201,0.0002048,0.0002026,0.000205,0.0002036,0.0002052,0.0002046,0.0002062,0.000208,0.000206,0.00015738,0.00015816,0.00015828,0.0001585,0.00015794,0.00015958,0.00015966,0.00015946,0.00015926,0.0001592,0.003394,0.003402,0.003388,0.003386,0.003382,0.003252,0.003242,0.003246,0.003238,0.003228
566,0.0002268,0.0002276,0.0002268,0.0002278,0.0002258,0.0002108,0.0002096,0.0002084,0.000207,0.0002076,0.00019612,0.00019886,0.00019812,0.0001984,0.00019966,0.0002002,0.00019892,0.00019964,0.0002022,0.0002004,0.00015482,0.00015532,0.0001559,0.00015536,0.00015588,0.0001565,0.00015652,0.00015616,0.00015708,0.0001564,0.004644,0.004656,0.004638,0.004636,0.004632,0.004484,0.004468,0.004472,0.00446,0.004452
568,0.0004688,0.0004678,0.0004678,0.0004686,0.0004666,0.0004264,0.0004234,0.0004224,0.0004198,0.0004198,0.00018942,0.00019274,0.00019088,0.00019236,0.00019256,0.00019446,0.00019308,0.0001931,0.00019388,0.00019338,0.00015118,0.00015206,0.00015266,0.00015218,0.00015244,0.00015316,0.00015318,0.00015232,0.0001534,0.00015272,0.005912,0.005926,0.005906,0.005902,0.005896,0.005736,0.005716,0.00572,0.005708,0.005698
570,0.0009376,0.0009336,0.0009368,0.000935,0.0009328,0.000859,0.0008536,0.0008534,0.0008502,0.0008498,0.0001808,0.00018414,0.00018264,0.00018326,0.00018378,0.0001855,0.00018444,0.00018414,0.0001853,0.00018462,0.00014748,0.00014812,0.00014852,0.00014842,0.00014814,0.0001486,0.00014858,0.00014794,0.00014876,0.00014816,0.00715,0.007168,0.007148,0.007136,0.007134,0.006958,0.006934,0.006942,0.00693,0.006924
572,0.0016224,0.0016204,0.0016226,0.00162,0.0016156,0.001508,0.0015018,0.0015024,0.0014988,0.001499,0.00017284,0.00017566,0.00017452,0.00017372,0.00017526,0.0001756,0.00017436,0.00017604,0.00017702,0.00017668,0.00014572,0.0001463,0.00014658,0.00014646,0.00014608,0.00014562,0.00014616,0.00014568,0.00014616,0.00014548,0.008284,0.008302,0.008282,0.00827,0.008268,0.008086,0.008064,0.008074,0.008068,0.008062
574,0.00257,0.002568,0.00257,0.002568,0.002562,0.002414,0.002414,0.002414,0.002414,0.002412,0.00016658,0.00016936,0.0001689,0.00016882,0.00017066,0.00016874,0.0001681,0.00016896,0.00017118,0.00016942,0.0001493,0.0001497,0.00014996,0.00014976,0.00014918,0.00014784,0.00014908,0.00014772,0.00014886,0.00014844,0.009276,0.009294,0.009272,0.009262,0.00926,0.009092,0.009072,0.009086,0.009084,0.009082
576,0.003752,0.00375,0.003754,0.003748,0.003744,0.003572,0.003574,0.003576,0.003578,0.003578,0.00017014,0.00017358,0.00017258,0.0001723,0.00017322,0.00017024,0.00017,0.00017182,0.00017336,0.00017128,0.00016184,0.00016202,0.00016182,0.00016214,0.00016172,0.00015892,0.0001601,0.00015946,0.00016036,0.00016,0.010068,0.01009,0.010068,0.010054,0.010058,0.009914,0.009902,0.00992,0.00992,0.00992
578,0.004914,0.004912,0.004916,0.004906,0.004904,0.00473,0.004734,0.004736,0.004742,0.004742,0.00019754,0.00019858,0.0001981,0.00019786,0.00019868,0.00019072,0.0001924,0.00019462,0.00019388,0.0001942,0.0001856,0.00018594,0.000186,0.00018554,0.00018544,0.0001806,0.00018214,0.0001814,0.00018268,0.000182,0.010614,0.010636,0.010616,0.0106,0.010604,0.010492,0.010482,0.010508,0.010506,0.01051
580,0.006048,0.006046,0.00605,0.006042,0.006038,0.005872,0.005878,0.005884,0.00589,0.00589,0.0002616,0.0002624,0.000262,0.0002606,0.0002626,0.0002496,0.0002506,0.0002524,0.000252,0.0002514,0.0002258,0.000226,0.0002258,0.0002252,0.0002252,0.0002176,0.0002198,0.0002188,0.00022,0.0002198,0.01098,0.011004,0.010982,0.010968,0.010972,0.01089,0.010888,0.010912,0.010916,0.010926
582,0.007084,0.007082,0.007088,0.00708,0.007076,0.00693,0.006942,0.006952,0.006954,0.006956,0.0003782,0.000379,0.0003794,0.000378,0.0003798,0.000358,0.00036,0.0003626,0.000362,0.0003616,0.0002868,0.0002868,0.0002868,0.000286,0.000286,0.0002752,0.0002776,0.0002768,0.0002786,0.0002782,0.01117,0.011194,0.011172,0.011164,0.011166,0.011118,0.011124,0.011144,0.011152,0.011164
584,0.007944,0.007944,0.00795,0.007944,0.007942,0.00783,0.007854,0.007862,0.007864,0.007862,0.0005682,0.0005686,0.0005694,0.0005668,0.0005688,0.0005344,0.0005404,0.0005418,0.0005418,0.0005402,0.0003708,0.0003708,0.0003706,0.0003698,0.0003692,0.000356,0.0003594,0.0003582,0.0003594,0.000359,0.011216,0.01124,0.011214,0.011214,0.011214,0.011206,0.011216,0.011234,0.011244,0.011252
586,0.008598,0.0086,0.008606,0.0086,0.008602,0.008538,0.00857,0.008574,0.008572,0.008568,0.0009204,0.0009212,0.0009214,0.0009184,0.0009192,0.0008694,0.000874,0.000877,0.0008758,0.0008726,0.0004942,0.000495,0.0004942,0.0004936,0.0004926,0.0004756,0.0004794,0.0004778,0.000479,0.0004782,0.011102,0.011124,0.011102,0.011106,0.011104,0.011146,0.011154,0.011164,0.011168,0.011174
588,0.008918,0.00892,0.008924,0.00892,0.008922,0.008906,0.00893,0.008932,0.008926,0.008918,0.0013448,0.001345,0.0013454,0.0013434,0.0013428,0.001286,0.001288,0.0012902,0.0012882,0.0012852,0.0006346,0.0006346,0.0006338,0.0006334,0.0006326,0.0006124,0.0006154,0.0006132,0.0006144,0.0006128,0.010928,0.010948,0.010926,0.010932,0.010932,0.011,0.011002,0.011006,0.011004,0.011004
590,0.008928,0.008932,0.008936,0.008932,0.008932,0.008978,0.008986,0.008978,0.008968,0.00896,0.0017508,0.0017506,0.0017522,0.0017506,0.0017498,0.0017028,0.0017012,0.0017028,0.0016988,0.0016952,0.0007938,0.0007934,0.000793,0.0007922,0.0007914,0.0007674,0.00077,0.0007674,0.0007682,0.000767,0.010688,0.01071,0.010688,0.010694,0.010692,0.01077,0.01076,0.010754,0.01075,0.010744
592,0.008486,0.008492,0.008494,0.008492,0.008492,0.008608,0.0086,0.008586,0.00857,0.008562,0.002014,0.002014,0.002016,0.002016,0.002016,0.0019896,0.0019864,0.001986,0.001982,0.0019784,0.0009712,0.000971,0.0009708,0.0009698,0.0009686,0.000941,0.0009428,0.0009402,0.00094,0.0009394,0.010396,0.010416,0.010396,0.0104,0.0104,0.010468,0.010452,0.010442,0.010432,0.010426
594,0.007526,0.007532,0.007532,0.007534,0.007536,0.00771,0.007694,0.007678,0.007656,0.007648,0.002106,0.002106,0.002106,0.00211,0.002106,0.002102,0.0021,0.002096,0.002092,0.002088,0.0011702,0.0011706,0.0011704,0.0011696,0.0011682,0.0011356,0.001138,0.0011352,0.0011344,0.0011328,0.010054,0.010076,0.010056,0.01006,0.01006,0.010118,0.010098,0.01008,0.010072,0.010064
596,0.006068,0.006076,0.006076,0.00608,0.006082,0.006274,0.006264,0.006246,0.006226,0.00622,0.002052,0.002054,0.002052,0.002054,0.002056,0.002064,0.002062,0.00206,0.002052,0.002048,0.0014056,0.0014056,0.0014052,0.0014048,0.0014032,0.0013676,0.0013698,0.0013656,0.0013648,0.0013628,0.009634,0.009654,0.009642,0.00964,0.00964,0.00969,0.009662,0.009646,0.009636,0.009626
598,0.004698,0.004706,0.004706,0.00471,0.004712,0.004886,0.004876,0.004862,0.004848,0.004844,0.00193,0.0019294,0.0019302,0.0019324,0.0019308,0.0019442,0.0019402,0.001938,0.0019332,0.001928,0.001631,0.0016314,0.0016306,0.0016306,0.0016286,0.001588,0.0015882,0.0015844,0.001584,0.0015816,0.009248,0.009268,0.009252,0.009254,0.009256,0.009286,0.009256,0.009244,0.009234,0.009228
600,0.003498,0.003504,0.003504,0.003508,0.00351,0.003654,0.00364,0.003632,0.003622,0.003618,0.0018028,0.0018022,0.0018044,0.001806,0.0018046,0.0018106,0.0018028,0.0018024,0.0017982,0.0017956,0.0018582,0.001859,0.0018588,0.0018586,0.0018568,0.0018078,0.0018074,0.0018046,0.0018048,0.0018032,0.00888,0.0089,0.008886,0.008886,0.008888,0.008888,0.008858,0.008852,0.008844,0.00884
602,0.0025,0.002508,0.002506,0.002508,0.002512,0.002618,0.002606,0.002602,0.002598,0.002596,0.0017686,0.0017674,0.001769,0.00177,0.0017688,0.0017474,0.001742,0.0017436,0.00174,0.00174,0.002082,0.002084,0.002084,0.002084,0.002082,0.002026,0.002028,0.002026,0.002026,0.002026,0.008528,0.008548,0.008536,0.008534,0.008538,0.008506,0.008484,0.008486,0.008484,0.008488
604,0.001712,0.0017168,0.0017182,0.0017174,0.001721,0.0017958,0.001794,0.0017908,0.0017902,0.0017896,0.001954,0.0019524,0.001955,0.0019544,0.0019508,0.0018864,0.0018878,0.0018916,0.0018892,0.0018894,0.002294,0.002296,0.002296,0.002298,0.002296,0.002236,0.00224,0.00224,0.002242,0.002244,0.008184,0.008202,0.008194,0.00819,0.008198,0.00815,0.008142,0.008152,0.008154,0.008164
606,0.0010892,0.0010938,0.0010946,0.0010944,0.0010972,0.0011422,0.0011432,0.0011438,0.0011466,0.0011456,0.002488,0.002486,0.002488,0.002486,0.002482,0.002368,0.002378,0.002384,0.002382,0.002382,0.002498,0.002498,0.0025,0.0025,0.0025,0.002442,0.00245,0.002452,0.002454,0.002458,0.007774,0.007794,0.007784,0.007784,0.007786,0.007762,0.007764,0.007776,0.007782,0.007794
608,0.0007724,0.0007758,0.0007758,0.0007728,0.0007782,0.0007902,0.0007954,0.0007948,0.0007976,0.0007982,0.003288,0.003286,0.003288,0.003286,0.00328,0.00313,0.003142,0.00315,0.00315,0.003152,0.002626,0.002626,0.002628,0.00263,0.002628,0.002582,0.002592,0.002596,0.002598,0.002602,0.007282,0.007298,0.007292,0.007292,0.007292,0.007314,0.007318,0.007332,0.007338,0.00735
610,0.000673,0.0006746,0.0006766,0.0006714,0.0006772,0.0006728,0.0006758,0.0006776,0.0006808,0.000681,0.00422,0.004218,0.00422,0.004218,0.004212,0.004048,0.00406,0.004068,0.004072,0.00407,0.002648,0.00265,0.00265,0.002652,0.00265,0.002626,0.002636,0.00264,0.002642,0.002644,0.00663,0.006644,0.00664,0.006642,0.006644,0.006704,0.00671,0.006726,0.00673,0.006742
612,0.0006652,0.000666,0.0006662,0.0006628,0.0006682,0.000661,0.0006624,0.0006628,0.0006672,0.0006656,0.0052,0.0052,0.005202,0.005202,0.005194,0.005034,0.005044,0.005054,0.005054,0.005054,0.002548,0.00255,0.002552,0.002554,0.00255,0.002554,0.002562,0.002566,0.002568,0.00257,0.00582,0.005836,0.005834,0.005834,0.005836,0.005932,0.005936,0.00595,0.00595,0.005964
614,0.0006852,0.0006874,0.0006866,0.0006834,0.0006884,0.0006798,0.000682,0.000683,0.0006884,0.0006848,0.006156,0.006154,0.00616,0.006158,0.00615,0.006002,0.006016,0.006024,0.006024,0.006026,0.002324,0.002328,0.00233,0.00233,0.002328,0.002362,0.002366,0.00237,0.002372,0.002374,0.004944,0.004958,0.00496,0.004956,0.00496,0.005076,0.005082,0.005092,0.00509,0.005102
616,0.000717,0.0007192,0.0007206,0.0007158,0.0007222,0.0007116,0.0007158,0.0007176,0.000721,0.0007208,0.00708,0.007078,0.007084,0.007084,0.007078,0.006958,0.006978,0.00698,0.00698,0.00698,0.0019624,0.0019678,0.0019688,0.0019704,0.0019686,0.002024,0.00203,0.002032,0.002032,0.002034,0.00398,0.003988,0.003992,0.003992,0.003994,0.004122,0.00413,0.00413,0.004126,0.00414
618,0.0007508,0.0007534,0.0007558,0.0007486,0.0007582,0.0007486,0.0007518,0.0007508,0.000757,0.0007534,0.007782,0.007782,0.007788,0.007788,0.007782,0.007704,0.007726,0.007722,0.00772,0.007714,0.0015534,0.0015564,0.001559,0.0015604,0.001559,0.0016258,0.0016294,0.0016298,0.0016296,0.0016286,0.003066,0.00307,0.003074,0.003076,0.003078,0.003208,0.00321,0.00321,0.003204,0.003212
620,0.0007838,0.0007846,0.0007872,0.0007828,0.0007916,0.0007816,0.0007836,0.0007802,0.0007864,0.000784,0.008212,0.008214,0.008218,0.008222,0.008216,0.00818,0.008192,0.008182,0.008178,0.00817,0.0011518,0.0011532,0.0011564,0.0011574,0.0011566,0.0012234,0.0012232,0.0012238,0.0012212,0.0012202,0.002246,0.00225,0.002256,0.002254,0.002258,0.002378,0.002374,0.002376,0.002366,0.002372
622,0.0008272,0.00083,0.0008308,0.0008246,0.0008334,0.0008246,0.000821,0.0008194,0.0008222,0.0008202,0.00843,0.008434,0.00844,0.008444,0.00844,0.008436,0.008432,0.008416,0.008408,0.008398,0.0007856,0.000787,0.0007892,0.0007904,0.0007898,0.0008438,0.0008404,0.0008404,0.000838,0.000837,0.0015206,0.001523,0.001529,0.0015292,0.0015288,0.0016238,0.0016172,0.0016202,0.0016114,0.0016178
624,0.0008912,0.0008938,0.0008964,0.0008902,0.0008976,0.0008838,0.0008766,0.0008748,0.000879,0.0008762,0.008458,0.008462,0.008466,0.008476,0.00847,0.008486,0.00846,0.008442,0.008434,0.008418,0.0005552,0.0005556,0.0005576,0.0005582,0.0005574,0.0005794,0.0005764,0.0005762,0.0005748,0.0005738,0.0010144,0.0010154,0.0010214,0.0010208,0.0010176,0.0010668,0.0010636,0.0010672,0.0010576,0.0010644
626,0.0009886,0.0009916,0.000994,0.0009876,0.0009966,0.0009742,0.000968,0.0009652,0.000968,0.0009684,0.008306,0.00831,0.008314,0.008326,0.008318,0.008336,0.008302,0.008278,0.008272,0.008258,0.0005912,0.0005918,0.000593,0.0005912,0.0005908,0.000569,0.0005678,0.000567,0.0005662,0.0005662,0.0009022,0.0009034,0.0009044,0.0009046,0.0009022,0.00089,0.0008848,0.0008938,0.000883,0.000888
628,0.0011088,0.001114,0.0011138,0.0011066,0.0011138,0.0010884,0.0010802,0.0010798,0.0010822,0.0010838,0.008032,0.008036,0.008036,0.00805,0.008044,0.00805,0.008022,0.007998,0.007992,0.007982,0.0008744,0.0008746,0.0008758,0.0008734,0.0008734,0.0008222,0.0008218,0.0008212,0.0008206,0.0008202,0.0011662,0.001169,0.0011678,0.0011706,0.0011656,0.0011172,0.0011086,0.0011204,0.0011104,0.001115
630,0.0012352,0.0012388,0.0012424,0.0012346,0.0012418,0.0012118,0.0012058,0.0012054,0.001208,0.00121,0.007708,0.007712,0.007712,0.007726,0.007718,0.007716,0.007696,0.007676,0.007674,0.007666,0.0012464,0.0012462,0.0012472,0.001245,0.0012454,0.001181,0.0011804,0.0011796,0.001179,0.0011786,0.0015718,0.0015772,0.0015722,0.0015744,0.0015682,0.0015058,0.001497,0.0015084,0.0014962,0.0015018
632,0.001367,0.0013696,0.0013734,0.0013672,0.0013712,0.0013396,0.0013348,0.0013338,0.0013384,0.0013396,0.007356,0.00736,0.007362,0.007372,0.007366,0.007354,0.007338,0.007322,0.007326,0.007318,0.001642,0.0016418,0.0016436,0.0016416,0.001642,0.00157,0.0015686,0.001569,0.0015686,0.0015682,0.002014,0.002018,0.002012,0.002014,0.002008,0.0019386,0.0019314,0.0019416,0.0019294,0.0019354
634,0.0014996,0.0015064,0.0015058,0.0014996,0.001503,0.0014716,0.001464,0.0014642,0.0014708,0.0014714,0.006992,0.006996,0.007002,0.00701,0.007006,0.00699,0.006972,0.00696,0.00697,0.006964,0.00204,0.00204,0.002042,0.002042,0.00204,0.0019624,0.0019618,0.0019626,0.0019638,0.0019638,0.002458,0.002466,0.00246,0.002458,0.002454,0.002376,0.00237,0.002382,0.00237,0.002378
636,0.001641,0.0016472,0.0016486,0.0016462,0.001646,0.0016156,0.001607,0.0016106,0.0016146,0.0016184,0.006594,0.006604,0.006608,0.006616,0.00661,0.006594,0.006578,0.006574,0.006588,0.006586,0.002466,0.002468,0.00247,0.00247,0.002468,0.002386,0.002388,0.002392,0.002394,0.002394,0.002942,0.002946,0.002944,0.002942,0.00294,0.002858,0.002852,0.002866,0.002858,0.002866
638,0.0017672,0.0017714,0.0017766,0.0017704,0.001771,0.0017414,0.0017396,0.0017438,0.0017484,0.0017522,0.006254,0.006262,0.006264,0.006272,0.006266,0.00625,0.00625,0.006252,0.006268,0.006272,0.00284,0.002842,0.002844,0.002844,0.002844,0.00276,0.002768,0.002774,0.002778,0.00278,0.003364,0.003372,0.003366,0.003366,0.003362,0.003284,0.003286,0.003304,0.003296,0.003308
640,0.0018902,0.0018956,0.0018952,0.0018924,0.0018942,0.0018654,0.0018688,0.0018718,0.0018796,0.0018846,0.005962,0.005972,0.005974,0.005978,0.005976,0.005962,0.00598,0.005988,0.006006,0.006012,0.003158,0.00316,0.003162,0.003164,0.003162,0.00309,0.003102,0.003108,0.003114,0.003118,0.003704,0.003714,0.003706,0.003706,0.003702,0.003648,0.003656,0.003676,0.003666,0.00368
642,0.00201,0.002014,0.002018,0.002014,0.00201,0.0019922,0.002002,0.002004,0.00201,0.002016,0.005706,0.005716,0.005718,0.005722,0.00572,0.005722,0.005752,0.00576,0.005778,0.005784,0.003398,0.0034,0.003402,0.003404,0.003404,0.003352,0.003368,0.003374,0.003382,0.003386,0.003908,0.003922,0.003914,0.003914,0.003914,0.003894,0.003902,0.003918,0.003912,0.003924
644,0.002128,0.002132,0.002136,0.002132,0.00213,0.002118,0.002128,0.002132,0.00214,0.002144,0.005492,0.005498,0.005504,0.005506,0.005506,0.005532,0.005558,0.005566,0.005586,0.005586,0.003554,0.003556,0.003558,0.00356,0.003558,0.003532,0.00355,0.003558,0.003564,0.003566,0.003976,0.003984,0.003978,0.003984,0.003982,0.003994,0.004,0.004016,0.00401,0.00402
646,0.002264,0.00227,0.00227,0.002272,0.002268,0.002266,0.00227,0.002278,0.00228,0.002286,0.00528,0.005288,0.00529,0.005294,0.005288,0.005346,0.005362,0.005366,0.005382,0.005376,0.003632,0.003636,0.003638,0.003638,0.003638,0.00364,0.003652,0.00366,0.003666,0.003664,0.003962,0.003966,0.003962,0.003968,0.003964,0.003996,0.004,0.004014,0.004004,0.004012
648,0.002378,0.002384,0.002388,0.002388,0.00238,0.002392,0.002392,0.002396,0.002398,0.002402,0.005106,0.005118,0.005118,0.005122,0.00512,0.005192,0.005196,0.0052,0.005208,0.005204,0.003654,0.003658,0.00366,0.003662,0.003658,0.00368,0.00369,0.003694,0.003698,0.003696,0.003922,0.00393,0.003922,0.003928,0.003926,0.00397,0.00397,0.003978,0.003968,0.003972
650,0.002464,0.00247,0.002472,0.002472,0.002466,0.002488,0.002486,0.002484,0.002484,0.002486,0.004916,0.004926,0.004926,0.00493,0.00493,0.005006,0.005008,0.005008,0.005012,0.005006,0.003632,0.003636,0.003636,0.003638,0.003636,0.003674,0.00368,0.003682,0.003684,0.00368,0.00385,0.003856,0.003844,0.00385,0.003852,0.0039,0.003898,0.0039,0.00389,0.003898
652,0.002516,0.002514,0.00252,0.002524,0.002516,0.00254,0.00254,0.002536,0.002534,0.002532,0.004676,0.004688,0.004686,0.00469,0.004692,0.00477,0.004772,0.004768,0.004768,0.004764,0.003536,0.003542,0.003542,0.003544,0.00354,0.003594,0.003598,0.003596,0.003596,0.003592,0.003698,0.003704,0.003696,0.003702,0.0037,0.003762,0.003762,0.003756,0.00375,0.003752
654,0.002544,0.00255,0.002552,0.002552,0.002542,0.00257,0.002574,0.00257,0.002566,0.002562,0.004432,0.004444,0.004442,0.004448,0.004446,0.004524,0.004526,0.004518,0.00452,0.00451,0.003348,0.003352,0.003352,0.003354,0.003352,0.003424,0.003426,0.003422,0.00342,0.003412,0.003456,0.00346,0.003458,0.003462,0.003458,0.003536,0.003532,0.003524,0.003514,0.003518
656,0.002572,0.002578,0.002582,0.002582,0.002574,0.0026,0.002606,0.002598,0.002588,0.002586,0.004198,0.00421,0.004208,0.00421,0.004212,0.004282,0.004282,0.004266,0.004266,0.004254,0.003004,0.00301,0.00301,0.003012,0.00301,0.0031,0.003102,0.003092,0.003088,0.003082,0.003066,0.003072,0.003064,0.003072,0.003076,0.00316,0.003154,0.003142,0.003132,0.003136
658,0.002606,0.00261,0.002616,0.002616,0.002606,0.00263,0.002628,0.002618,0.002608,0.002606,0.004026,0.004038,0.004034,0.00404,0.00404,0.004102,0.00409,0.004078,0.004074,0.00406,0.002614,0.00262,0.00262,0.002624,0.00262,0.002716,0.00271,0.0027,0.002696,0.002688,0.002662,0.002668,0.002664,0.00267,0.002676,0.002752,0.002744,0.002734,0.002724,0.002722
660,0.002638,0.00264,0.002642,0.002646,0.002634,0.002658,0.002646,0.002634,0.002624,0.002622,0.003882,0.003892,0.003888,0.003896,0.003894,0.00394,0.003922,0.00391,0.003906,0.003894,0.002202,0.002206,0.002206,0.00221,0.002208,0.002292,0.002282,0.002274,0.002272,0.002264,0.00225,0.002254,0.002252,0.002258,0.002258,0.00233,0.00232,0.002308,0.002302,0.0023
662,0.00265,0.002654,0.002662,0.00266,0.00265,0.002664,0.002652,0.002642,0.002634,0.002632,0.003744,0.003756,0.003752,0.003758,0.003756,0.003788,0.003766,0.003754,0.00375,0.003742,0.0017858,0.0017898,0.00179,0.0017934,0.0017912,0.0018632,0.001854,0.0018472,0.0018444,0.0018396,0.0018406,0.001844,0.001841,0.0018412,0.0018466,0.0019004,0.0019016,0.0018856,0.0018822,0.0018844
664,0.002626,0.002626,0.002638,0.002636,0.002622,0.002634,0.002626,0.002616,0.002608,0.002608,0.003568,0.003582,0.003576,0.00358,0.00358,0.0036,0.003584,0.003574,0.003578,0.003568,0.0013552,0.0013576,0.0013574,0.0013616,0.0013596,0.0014188,0.001413,0.001407,0.0014072,0.0014048,0.0014088,0.0014118,0.0014086,0.0014134,0.0014152,0.0014668,0.0014602,0.0014496,0.0014488,0.001454
666,0.002492,0.002492,0.0025,0.0025,0.002488,0.002502,0.0025,0.002496,0.002492,0.002492,0.003294,0.003304,0.003302,0.003308,0.003308,0.003324,0.003322,0.003316,0.003322,0.003316,0.0009374,0.0009398,0.000939,0.0009418,0.0009412,0.0009908,0.0009902,0.0009866,0.000987,0.000985,0.0009878,0.0009876,0.000987,0.0009958,0.0009922,0.0010434,0.0010422,0.0010294,0.0010312,0.0010336
668,0.002264,0.002264,0.00227,0.002274,0.002268,0.00228,0.002288,0.002286,0.002284,0.002282,0.00294,0.00295,0.002948,0.002954,0.002956,0.00298,0.002982,0.002982,0.002988,0.002982,0.0006002,0.0006008,0.0006004,0.0006034,0.0006026,0.0006426,0.0006438,0.0006412,0.0006428,0.0006422,0.0006496,0.0006452,0.0006482,0.0006518,0.0006534,0.0006908,0.0006966,0.000685,0.000687,0.0006864
670,0.0019852,0.0019844,0.0019912,0.0019958,0.0019874,0.002008,0.00202,0.002018,0.002016,0.002018,0.002538,0.002552,0.002546,0.002556,0.002554,0.002584,0.002592,0.002594,0.002602,0.002596,0.0003606,0.0003612,0.000359,0.0003608,0.0003608,0.0003848,0.0003854,0.0003844,0.0003862,0.000386,0.0003994,0.000402,0.0004018,0.000404,0.0004042,0.0004268,0.0004338,0.0004246,0.0004258,0.0004294
672,0.0016828,0.0016804,0.0016848,0.0016862,0.0016822,0.0017096,0.0017222,0.0017206,0.0017186,0.001721,0.002124,0.002138,0.00213,0.002138,0.002138,0.002178,0.002182,0.002188,0.002194,0.002188,0.0002342,0.0002358,0.0002334,0.000235,0.0002342,0.0002452,0.0002462,0.0002452,0.0002472,0.0002472,0.0002748,0.0002726,0.0002718,0.0002732,0.0002762,0.0002908,0.0002888,0.0002794,0.000289,0.0002878
674,0.001326,0.0013276,0.0013298,0.0013338,0.001327,0.0013616,0.0013722,0.0013724,0.00137,0.0013736,0.001664,0.001674,0.0016668,0.0016766,0.0016734,0.001722,0.0017226,0.0017274,0.0017342,0.0017328,0.00018528,0.00018686,0.00018426,0.00018494,0.0001847,0.000188,0.00018878,0.00018816,0.00019012,0.00019076,0.0002226,0.000223,0.0002244,0.0002224,0.0002234,0.0002302,0.0002356,0.000225,0.000233,0.0002248
676,0.0010056,0.0010046,0.0010046,0.0010114,0.0010064,0.0010386,0.001051,0.001054,0.0010524,0.00105,0.0012574,0.0012658,0.001261,0.0012674,0.0012656,0.0013146,0.0013132,0.0013212,0.001328,0.001323,0.00017008,0.00017028,0.00016928,0.0001683,0.00016798,0.00017044,0.00017116,0.00017106,0.0001726,0.00017436,0.0002048,0.000206,0.0002052,0.0002098,0.0002088,0.0002082,0.0002184,0.0002068,0.000218,0.0002112
678,0.0007062,0.000708,0.0007056,0.0007146,0.0007064,0.0007428,0.0007524,0.0007534,0.0007502,0.0007478,0.0008934,0.0008966,0.0008948,0.0009004,0.000896,0.0009432,0.000942,0.000951,0.0009524,0.000949,0.00016032,0.0001606,0.00015986,0.00015908,0.00015956,0.00016052,0.00016266,0.0001616,0.00016264,0.000164,0.00019604,0.00019836,0.00019518,0.00019494,0.0002022,0.0001979,0.0002078,0.00019604,0.0002088,0.0002034
680,0.0004532,0.0004542,0.0004562,0.0004614,0.0004578,0.000482,0.0004912,0.0004922,0.0004902,0.0004842,0.0005858,0.0005864,0.0005856,0.000592,0.000589,0.000624,0.0006264,0.0006344,0.0006342,0.000629,0.00015378,0.00015402,0.00015342,0.00015382,0.00015354,0.00015376,0.00015666,0.00015568,0.00015526,0.0001581,0.00019044,0.00018874,0.00019188,0.0001856,0.00019378,0.00019224,0.0001992,0.00019092,0.0002022,0.00019604
682,0.0002932,0.0002896,0.0002902,0.0002964,0.0002932,0.0002994,0.0003152,0.0003122,0.0003088,0.0003058,0.0003828,0.000385,0.00038,0.0003892,0.000386,0.0004052,0.0004064,0.0004114,0.0004136,0.0004052,0.00014938,0.00015064,0.00015,0.0001501,0.00015034,0.00015116,0.0001544,0.00015106,0.00015244,0.00015526,0.0001859,0.00018646,0.00019096,0.00018702,0.00018934,0.00019554,0.0001973,0.00019206,0.0002026,0.00019384
684,0.0002152,0.0002166,0.0002132,0.0002172,0.0002218,0.0002198,0.0002274,0.0002294,0.0002234,0.0002246,0.0002922,0.000293,0.000287,0.0002958,0.000291,0.0002994,0.0002996,0.0003088,0.0003024,0.0002996,0.00014602,0.0001461,0.00014488,0.00014636,0.00014574,0.00014758,0.00015052,0.00014742,0.00014908,0.00015066,0.0001813,0.00018658,0.0001904,0.0001858,0.00018618,0.00019252,0.00019618,0.00019166,0.0002014,0.0001919
686,0.0001924,0.00019514,0.0001939,0.00019024,0.00019856,0.00019688,0.0002018,0.0002062,0.00019872,0.0001951,0.0002612,0.0002574,0.000251,0.0002618,0.0002534,0.0002608,0.0002598,0.0002662,0.0002642,0.0002594,0.0001385,0.0001391,0.0001375,0.00013854,0.0001395,0.00014016,0.00014238,0.0001405,0.0001406,0.00014378,0.00017384,0.00017746,0.00018236,0.00017898,0.00018048,0.00018584,0.0001861,0.00018164,0.0002006,0.00018294
688,0.00018186,0.00018396,0.00017872,0.0001808,0.00018514,0.00018428,0.00018786,0.00019274,0.00018428,0.00018302,0.00024,0.0002338,0.0002306,0.0002406,0.0002336,0.0002384,0.000236,0.0002434,0.0002376,0.0002362,0.00013014,0.00013164,0.00013012,0.00013112,0.00013122,0.00013276,0.00013506,0.00013316,0.00013202,0.00013462,0.0001729,0.00017204,0.00017566,0.00016838,0.0001731,0.00017974,0.00018046,0.00017868,0.0001908,0.00017622
690,0.00017398,0.00017318,0.00016952,0.0001693,0.0001755,0.00017418,0.00017676,0.00017594,0.00017492,0.00017396,0.00022,0.0002138,0.000215,0.000223,0.0002168,0.0002226,0.0002186,0.0002256,0.0002194,0.000217,0.0001221,0.00012422,0.00012276,0.00012342,0.0001243,0.00012476,0.0001263,0.00012496,0.00012326,0.00012684,0.00016412,0.0001673,0.0001707,0.0001619,0.00016824,0.00016876,0.00017554,0.00016976,0.00018258,0.00017234
692,0.00016066,0.00016354,0.00016182,0.00015508,0.0001639,0.00016526,0.00016546,0.00016444,0.00016514,0.00016376,0.0002006,0.0001956,0.0001974,0.000203,0.00019788,0.0002028,0.00019862,0.000204,0.00019832,0.00019926,0.00011336,0.00011442,0.00011392,0.00011388,0.00011426,0.00011592,0.00011666,0.00011534,0.00011434,0.00011766,0.0001549,0.00016062,0.00016276,0.00015384,0.0001588,0.00015948,0.00016042,0.00016328,0.00017396,0.00016252
694,0.00015118,0.00015006,0.0001454,0.00014334,0.00015474,0.00015658,0.0001556,0.0001539,0.00015814,0.00014908,0.00018532,0.00017762,0.00017904,0.0001883,0.0001821,0.0001836,0.00017982,0.00018536,0.00018034,0.00018154,0.00010394,0.00010556,0.00010592,0.0001047,0.0001053,0.00010658,0.00010756,0.0001064,0.00010412,0.00010836,0.00014488,0.00015264,0.00015628,0.00014804,0.00014766,0.0001514,0.00015356,0.0001529,0.00016348,0.00015924
696,0.00014128,0.00013964,0.00013058,0.00013342,0.000145,0.00014772,0.00014068,0.0001436,0.00014526,0.00013938,0.00016994,0.00016268,0.00016658,0.00017294,0.00016662,0.00016682,0.00016792,0.0001691,0.0001638,0.00016836,9.676e-05,9.814e-05,9.72e-05,9.738e-05,9.68e-05,9.622e-05,9.982e-05,9.762e-05,9.576e-05,0.00010086,0.00013812,0.00014394,0.00014822,0.00014218,0.00014166,0.00014092,0.0001446,0.0001524,0.00015764,0.00014638
698,0.00013098,0.00013478,0.00012306,0.0001245,0.0001378,0.00013742,0.0001345,0.00013576,0.00013092,0.00013282,0.00015946,0.00014814,0.00015502,0.00016186,0.000155,0.00015744,0.0001548,0.00015434,0.0001496,0.00015646,8.898e-05,9.098e-05,9.156e-05,8.984e-05,9.202e-05,8.95e-05,9.272e-05,9.088e-05,8.99e-05,9.27e-05,0.00013684,0.00014248,0.0001429,0.00013286,0.0001367,0.00013498,0.00013578,0.00014226,0.00014956,0.00014102
700,0.00012428,0.0001307,0.0001208,0.0001172,0.00013034,0.00013284,0.00012922,0.0001274,0.0001285,0.0001253,0.00014318,0.00014054,0.00014354,0.0001504,0.00014426,0.00014584,0.00014038,0.00014532,0.00013868,0.00014554,8.424e-05,8.408e-05,8.516e-05,8.558e-05,8.572e-05,8.422e-05,8.66e-05,8.474e-05,8.426e-05,8.604e-05,0.0001286,0.00014034,0.00013998,0.00012878,0.00013066,0.00013006,0.00013046,0.00013224,0.00014418,0.00013406
702,0.0001176,0.00012036,0.00011046,0.0001063,0.00012402,0.00012742,0.0001206,0.00011988,0.00012084,0.00011678,0.0001371,0.00012976,0.0001358,0.00014014,0.00013502,0.00013612,0.00013166,0.00013278,0.00012744,0.00013158,7.936e-05,7.992e-05,8.122e-05,7.88e-05,8.112e-05,7.924e-05,8.022e-05,7.862e-05,7.832e-05,8.09e-05,0.00012254,0.00013026,0.00014092,0.00011968,0.0001219,0.00012782,0.00012654,0.0001365,0.00013346,0.00013176
704,0.0001118,0.0001168,0.00010874,0.00010358,0.00012416,0.00012336,0.000113,0.00011162,0.00011856,0.00011198,0.00012778,0.00012404,0.00012826,0.00013374,0.000125,0.0001254,0.00012192,0.0001264,0.00012006,0.00012642,7.444e-05,7.564e-05,7.726e-05,7.422e-05,7.612e-05,7.322e-05,7.496e-05,7.416e-05,7.434e-05,7.574e-05,0.0001176,0.0001285,0.000138,0.00011892,0.0001181,0.00012518,0.00012204,0.0001334,0.00013708,0.0001241
706,0.00010574,0.00011226,0.00010256,9.822e-05,0.00011932,0.00011748,0.00010876,0.00010444,0.00011394,0.00011008,0.0001245,0.0001188,0.00012128,0.00012838,0.00011726,0.00011828,0.00011694,0.00012082,0.00011282,0.0001201,7.108e-05,7.136e-05,7.248e-05,7.04e-05,7.236e-05,6.878e-05,7.22e-05,7.038e-05,7.026e-05,7.2e-05,0.0001158,0.00013058,0.000133,0.0001189,0.00010954,0.00011992,0.00011608,0.00012828,0.00013512,0.0001188
708,0.00010748,0.0001129,9.906e-05,9.172e-05,0.00011464,0.00012046,0.00010666,0.00010544,0.00011062,0.00010866,0.00011974,0.00011156,0.00011734,0.00012216,0.00011328,0.00011544,0.00011342,0.0001159,0.00010762,0.00011536,6.836e-05,6.938e-05,6.98e-05,6.828e-05,6.946e-05,6.67e-05,6.868e-05,6.784e-05,6.682e-05,6.912e-05,0.000118,0.00012438,0.00012804,0.00011814,0.00011392,0.00011726,0.00011742,0.00012576,0.0001311,0.00011902
710,0.00010268,0.00011076,9.598e-05,9.314e-05,0.00010968,0.00011292,0.00010592,0.00010716,0.00010896,0.00010288,0.00011502,0.00011172,0.00011632,0.00011418,0.00011014,0.00011968,0.00011378,0.00011064,0.00010964,0.00011136,6.588e-05,6.594e-05,6.804e-05,6.744e-05,6.894e-05,6.206e-05,6.768e-05,6.62e-05,6.89e-05,6.714e-05,0.00010964,0.00012764,0.0001293,0.00011714,0.00011354,0.00012392,0.00010944,0.00012896,0.00012364,0.00011582
712,9.91e-05,0.00010412,9.408e-05,9.692e-05,0.0001041,0.0001112,0.00010564,0.0001016,0.00010888,0.00010352,0.00010868,0.00010786,0.000111,0.00011632,0.00011062,0.0001108,0.0001069,0.00011312,0.0001072,0.00011504,6.282e-05,6.406e-05,6.626e-05,6.416e-05,6.618e-05,6.17e-05,6.49e-05,6.492e-05,6.552e-05,6.584e-05,0.00012078,0.00012974,0.00013096,0.00011664,0.00010952,0.0001145,0.00011038,0.00013182,0.00012104,0.0001103
714,9.452e-05,0.00010434,9.618e-05,8.744e-05,9.948e-05,0.00010638,9.776e-05,9.59e-05,0.00010682,0.00010348,0.00010578,0.00010316,0.00010904,0.0001138,0.00010928,0.00010776,0.00010376,0.00010854,0.00010452,0.00011124,6.266e-05,6.054e-05,6.516e-05,6.08e-05,6.586e-05,6.028e-05,6.276e-05,6.324e-05,6.212e-05,6.474e-05,0.00011526,0.00013044,0.0001277,0.0001123,0.00010694,0.00011388,0.00010988,0.00012864,0.00011974,0.00010908
716,8.912e-05,9.794e-05,8.866e-05,8.074e-05,9.748e-05,0.00010168,9.192e-05,8.89e-05,0.00010676,9.804e-05,9.916e-05,9.528e-05,0.00010586,0.00011144,0.0001036,0.00010212,0.00010156,0.00010258,9.948e-05,0.00010554,5.992e-05,5.812e-05,6.176e-05,6.012e-05,6.194e-05,5.696e-05,5.988e-05,5.99e-05,5.934e-05,6.188e-05,0.0001056,0.00012228,0.00012424,0.00010734,0.0001046,0.0001123,0.00011048,0.00012208,0.0001175,0.00010736
718,8.05e-05,9.232e-05,7.86e-05,8.006e-05,9.692e-05,9.144e-05,9.28e-05,8.45e-05,9.776e-05,9.526e-05,9.658e-05,9.158e-05,0.00010324,0.00010318,9.424e-05,9.756e-05,0.00010144,0.00010106,9.554e-05,0.00010722,5.488e-05,5.45e-05,5.748e-05,5.566e-05,5.922e-05,5.514e-05,5.818e-05,5.608e-05,5.684e-05,5.78e-05,0.00010156,0.00011316,0.00011976,0.00010716,0.00010534,0.00010918,0.0001059,0.00011578,0.00010294,0.00010944
720,7.834e-05,9.028e-05,8.374e-05,7.1e-05,8.336e-05,8.46e-05,8.172e-05,8.014e-05,8.754e-05,8.64e-05,9.194e-05,8.87e-05,9.558e-05,9.69e-05,9.538e-05,8.99e-05,9.006e-05,8.97e-05,9.3e-05,9.502e-05,5.13e-05,5.13e-05,5.4e-05,5.276e-05,5.556e-05,5.24e-05,5.364e-05,5.3e-05,5.488e-05,5.414e-05,0.00010158,0.00010986,0.0001201,0.00010486,0.00010266,0.0001063,9.946e-05,0.00010878,9.616e-05,0.00010084
722,7.278e-05,8.086e-05,7.44e-05,6.358e-05,7.064e-05,7.924e-05,7.264e-05,7.378e-05,8.592e-05,7.922e-05,8.458e-05,8.644e-05,9.112e-05,9.19e-05,9.238e-05,8.454e-05,8.614e-05,9.052e-05,9.304e-05,9.128e-05,5.124e-05,4.774e-05,5.276e-05,4.922e-05,5.282e-05,4.914e-05,5.216e-05,5.076e-05,5.156e-05,5.304e-05,0.00010334,0.00011302,0.00011372,0.00010056,9.624e-05,0.00010546,9.768e-05,0.00010384,8.982e-05,9.672e-05
724,7.034e-05,7.572e-05,7.254e-05,6.692e-05,6.844e-05,7.864e-05,6.648e-05,7.062e-05,7.278e-05,7.476e-05,8.218e-05,8.418e-05,9.16e-05,8.946e-05,8.83e-05,8.314e-05,8.496e-05,8.878e-05,9.392e-05,9.132e-05,4.91e-05,4.51e-05,5.23e-05,4.912e-05,5.064e-05,4.714e-05,4.946e-05,4.904e-05,5.004e-05,4.984e-05,0.00010032,0.00011378,0.00011784,0.00010326,0.00010024,0.0001038,8.626e-05,0.00010286,9.146e-05,9.508e-05
726,6.396e-05,7.658e-05,6.86e-05,6.438e-05,7.244e-05,7.206e-05,6.438e-05,6.804e-05,6.978e-05,7.11e-05,8.462e-05,8.268e-05,8.622e-05,8.688e-05,8.882e-05,8.536e-05,8.15e-05,8.812e-05,8.96e-05,9e-05,4.756e-05,4.334e-05,5.054e-05,4.832e-05,4.906e-05,4.526e-05,4.848e-05,4.664e-05,4.798e-05,5.076e-05,0.0001094,0.00010046,0.00011396,0.0001073,0.00010392,0.00010818,8.306e-05,0.0001005,8.784e-05,9.934e-05
728,7.086e-05,6.856e-05,6.63e-05,6.304e-05,6.15e-05,6.18e-05,7.124e-05,6.694e-05,6.752e-05,6.898e-05,8.452e-05,8.036e-05,8.428e-05,7.884e-05,8.662e-05,8.348e-05,8.132e-05,9.01e-05,9.008e-05,8.704e-05,4.622e-05,4.444e-05,5.114e-05,4.776e-05,5.014e-05,4.992e-05,4.976e-05,4.794e-05,5.008e-05,4.914e-05,8.964e-05,9.928e-05,0.00010398,0.00010274,9.968e-05,9.546e-05,8.61e-05,9.418e-05,7.414e-05,9.82e-05
730,6.414e-05,7.518e-05,7.114e-05,5.828e-05,6.158e-05,5.688e-05,6.844e-05,6.504e-05,6.196e-05,7.394e-05,8.342e-05,8.046e-05,8.134e-05,8.272e-05,8.87e-05,8.398e-05,8.362e-05,8.974e-05,9.26e-05,8.664e-05,4.794e-05,4.546e-05,5.276e-05,4.668e-05,4.966e-05,4.836e-05,4.908e-05,4.734e-05,4.946e-05,5.014e-05,9.138e-05,9.84e-05,9.724e-05,0.00010306,0.00010398,9.902e-05,8.198e-05,9.204e-05,7.76e-05,0.00010084
732,6.412e-05,6.496e-05,7.064e-05,5.804e-05,5.722e-05,5.586e-05,6.424e-05,6.432e-05,6.326e-05,6.856e-05,8.778e-05,8.144e-05,7.906e-05,8.106e-05,8.668e-05,8.118e-05,8.194e-05,8.826e-05,9.014e-05,8.56e-05,4.586e-05,4.594e-05,5.104e-05,4.536e-05,5.006e-05,4.79e-05,4.738e-05,4.578e-05,5.024e-05,4.95e-05,9.888e-05,0.00010068,9.58e-05,0.00010188,9.648e-05,9.588e-05,8.826e-05,9.142e-05,7.558e-05,0.00010232
734,5.236e-05,4.97e-05,6.146e-05,5.522e-05,5.96e-05,4.864e-05,5.666e-05,5.518e-05,5.082e-05,6.628e-05,7.596e-05,8.274e-05,7.466e-05,8.006e-05,7.802e-05,8.094e-05,7.82e-05,8.342e-05,9.046e-05,8.402e-05,4.434e-05,4.118e-05,5.04e-05,4.438e-05,4.704e-05,4.556e-05,4.742e-05,4.408e-05,4.896e-05,4.708e-05,0.00010294,9.54e-05,8.308e-05,9.304e-05,8.846e-05,9.786e-05,8.388e-05,8.996e-05,7.132e-05,9.138e-05
736,4.648e-05,5.058e-05,5.922e-05,5.082e-05,5.046e-05,3.582e-05,5.096e-05,5.346e-05,4.428e-05,4.878e-05,7.178e-05,7.226e-05,7.152e-05,7.136e-05,7.392e-05,7.214e-05,7.398e-05,7.786e-05,8.568e-05,7.398e-05,4.08e-05,3.486e-05,4.336e-05,3.71e-05,3.906e-05,4.006e-05,3.86e-05,3.956e-05,4.262e-05,4.154e-05,8.636e-05,7.672e-05,8.432e-05,9.496e-05,8.876e-05,8.942e-05,7.306e-05,7.458e-05,5.708e-05,8.62e-05
738,4.15e-05,3.918e-05,4.724e-05,4.206e-05,3.722e-05,3.368e-05,3.318e-05,3.446e-05,3.326e-05,4.712e-05,6.6e-05,6.266e-05,6.056e-05,6.41e-05,6.742e-05,6.188e-05,7.002e-05,7.016e-05,8.21e-05,7.038e-05,3.556e-05,3.202e-05,3.82e-05,3.462e-05,3.424e-05,3.296e-05,3.338e-05,3.484e-05,3.754e-05,3.716e-05,7.722e-05,7.876e-05,7.092e-05,8.606e-05,7.096e-05,8.308e-05,6.272e-05,5.67e-05,3.93e-05,7.622e-05
740,3.388e-05,2.97e-05,3.73e-05,3.532e-05,3.152e-05,2.068e-05,3.358e-05,3.07e-05,2.728e-05,3.768e-05,6.114e-05,6.57e-05,5.738e-05,5.808e-05,6.876e-05,5.66e-05,6.904e-05,6.698e-05,7.926e-05,6.526e-05,3.054e-05,2.848e-05,3.234e-05,3.106e-05,3.108e-05,2.95e-05,3.01e-05,2.824e-05,3.332e-05,3.08e-05,7.692e-05,7.308e-05,5.836e-05,7.328e-05,7.35e-05,6.97e-05,5.832e-05,5.212e-05,3.356e-05,7.552e-05
742,2.632e-05,2.824e-05,2.712e-05,4.036e-05,2.432e-05,2.148e-05,2.924e-05,2.918e-05,1.4876e-05,3.502e-05,6.004e-05,5.662e-05,5.524e-05,4.592e-05,7.036e-05,4.728e-05,6.15e-05,6.83e-05,7.26e-05,5.788e-05,2.69e-05,2.53e-05,2.848e-05,2.592e-05,2.518e-05,2.39e-05,2.7e-05,2.374e-05,2.92e-05,2.492e-05,7.318e-05,5.982e-05,4.732e-05,6.704e-05,6.05e-05,5.864e-05,5.472e-05,5.054e-05,2.432e-05,7.202e-05
744,2.302e-05,2.388e-05,2.916e-05,2.916e-05,9.542e-06,1.4184e-05,2.706e-05,1.7502e-05,8.284e-06,2.962e-05,6.002e-05,5.172e-05,5.144e-05,4.286e-05,6.372e-05,5.466e-05,5.414e-05,6.508e-05,6.086e-05,5.77e-05,2.218e-05,2.41e-05,2.574e-05,2.158e-05,2.216e-05,2.29e-05,2.068e-05,1.9544e-05,2.808e-05,2.068e-05,5.632e-05,5.146e-05,3.338e-05,6.064e-05,5.544e-05,3.832e-05,5.412e-05,3.32e-05,1.774e-05,5.016e-05
746,1.6052e-05,1.5614e-05,3.67e-05,3.322e-05,1.7474e-05,5.638e-06,1.7242e-05,1.5784e-05,4.002e-06,2.238e-05,5.072e-05,4.45e-05,5.542e-05,4.612e-05,6.07e-05,4.82e-05,5.68e-05,6.352e-05,6.322e-05,4.942e-05,2.192e-05,1.89e-05,2.232e-05,1.894e-05,1.5718e-05,2.078e-05,1.667e-05,1.819e-05,2.358e-05,1.9014e-05,5.364e-05,4.27e-05,3.064e-05,5.366e-05,4.366e-05,4.296e-05,4.63e-05,2.478e-05,2.042e-05,4.94e-05
748,9.59e-06,1.3458e-05,2.562e-05,2.49e-05,1.1966e-05,5.632e-06,1.0496e-05,4.81e-06,4.806e-06,1.7788e-05,5.198e-05,4.148e-05,4.776e-05,4.208e-05,6.134e-05,4.632e-05,5.14e-05,6.006e-05,6.37e-05,4.942e-05,1.8162e-05,2.18e-05,1.8594e-05,2.034e-05,1.2914e-05,2.004e-05,1.5926e-05,1.7842e-05,1.9256e-05,1.6284e-05,5.058e-05,4.856e-05,2.904e-05,4.424e-05,4.232e-05,4.128e-05,3.908e-05,2.498e-05,2.588e-05,4.042e-05
750,1.184e-05,1.051e-05,3.342e-05,2.374e-05,9.706e-06,9.26e-06,1.0306e-05,1.3006e-05,1.0634e-05,2.346e-05,5.34e-05,4.092e-05,4.308e-05,3.948e-05,5.762e-05,4.604e-05,5.736e-05,6.604e-05,5.886e-05,5.542e-05,1.6e-05,2.026e-05,1.8184e-05,1.8424e-05,1.1944e-05,1.6862e-05,1.4458e-05,1.411e-05,1.935e-05,1.6596e-05,4.888e-05,3.432e-05,1.8158e-05,4.29e-05,3.336e-05,3.36e-05,3.736e-05,2.184e-05,2.288e-05,4.404e-05
752,1.3878e-05,1.3538e-05,2.782e-05,3.662e-05,1.2898e-05,2.08e-06,8.084e-06,2.73e-05,1.707e-06,1.1504e-05,5.674e-05,3.988e-05,4.228e-05,4.248e-05,6.52e-05,5.218e-05,5.69e-05,6.346e-05,5.74e-05,5.78e-05,1.7608e-05,1.7028e-05,1.7608e-05,1.6726e-05,1.1602e-05,1.7358e-05,1.613e-05,1.3898e-05,1.7236e-05,1.586e-05,5.534e-05,4.108e-05,1.0746e-05,2.996e-05,2.478e-05,2.77e-05,3.292e-05,1.4878e-05,2.474e-05,4.716e-05
754,3.1e-05,5.26e-06,2.974e-05,2.346e-05,2.636e-06,8.18e-06,9.834e-06,2.752e-05,0,1.5062e-05,5.072e-05,4.28e-05,4.368e-05,4.13e-05,5.486e-05,5.254e-05,6.184e-05,5.492e-05,5.98e-05,5.468e-05,1.7722e-05,1.536e-05,1.7352e-05,1.744e-05,9.944e-06,1.9974e-05,1.3244e-05,1.4634e-05,1.7206e-05,1.5268e-05,5.548e-05,3.606e-05,2.362e-06,3.566e-05,3.67e-05,2.892e-05,4.056e-05,3.024e-06,2.7e-05,4.326e-05
756,3.238e-05,4.522e-06,3.246e-05,2.954e-05,8.16e-06,1.0334e-05,3.76e-06,2.226e-05,0,1.6138e-05,5.762e-05,4.392e-05,4.068e-05,4.282e-05,6.19e-05,5.386e-05,6.354e-05,5.316e-05,6.106e-05,5.992e-05,2.022e-05,1.7234e-05,1.6944e-05,1.729e-05,9.324e-06,1.8604e-05,1.6266e-05,1.1808e-05,1.5606e-05,1.4344e-05,4.866e-05,3.36e-05,2.468e-06,1.9602e-05,3.182e-05,2.848e-05,3.252e-05,2.596e-06,2.698e-05,4.272e-05
758,2.452e-05,3.304e-06,2.858e-05,3.99e-05,1.7984e-05,8.02e-06,7.4e-06,2.354e-05,0,2.082e-05,5.798e-05,4.104e-05,4.788e-05,4.414e-05,6.938e-05,5.658e-05,5.35e-05,5.234e-05,6.32e-05,5.586e-05,2.02e-05,1.7488e-05,1.923e-05,1.8368e-05,9.194e-06,1.8358e-05,1.3596e-05,1.228e-05,1.2084e-05,1.2888e-05,5.144e-05,2.662e-05,8.546e-07,1.7058e-05,4.282e-05,2.914e-05,3.248e-05,8.622e-06,4.64e-05,5.928e-05
760,2.986e-05,1.021e-05,2.766e-05,3.576e-05,1.186e-05,1.8032e-05,7.122e-06,3.182e-05,8.508e-06,1.54e-05,4.978e-05,3.574e-05,3.97e-05,5.274e-05,6.948e-05,5.364e-05,4.332e-05,5.458e-05,5.796e-05,5.488e-05,1.644e-05,1.619e-05,1.6094e-05,1.9144e-05,8.312e-06,1.7752e-05,1.5898e-05,1.6722e-05,1.2094e-05,1.2824e-05,6.1e-05,3.196e-05,6.526e-06,2.166e-05,1.9178e-05,2.086e-05,3.316e-05,1.5692e-05,5.124e-05,5.906e-05
762,3.408e-05,2.758e-06,3.966e-05,4.736e-05,1.4322e-05,1.113e-05,1.5022e-05,2.344e-05,1.1288e-06,1.2248e-05,4.59e-05,3.656e-05,4.562e-05,6.16e-05,6.042e-05,5.67e-05,4.134e-05,6.044e-05,5.1e-05,5.872e-05,1.9554e-05,2.014e-05,2.144e-05,1.7894e-05,1.3318e-05,1.8572e-05,1.5462e-05,1.8542e-05,1.71e-05,1.2946e-05,5.182e-05,4.052e-05,0,3.168e-05,3.694e-05,2.702e-05,2.61e-05,1.7848e-05,4.196e-05,4.05e-05
764,4.84e-05,1.3912e-05,5.046e-05,4.988e-05,1.258e-05,2.588e-05,2.026e-05,3.602e-05,8.846e-06,1.7338e-05,5.496e-05,3.32e-05,5.574e-05,5.808e-05,6.296e-05,5.53e-05,5.026e-05,5.388e-05,4.748e-05,5.876e-05,1.849e-05,1.8218e-05,1.858e-05,1.903e-05,1.106e-05,2.174e-05,1.869e-05,1.7492e-05,1.5674e-05,1.5266e-05,7.066e-05,4.33e-05,1.3378e-06,8.874e-06,5.236e-05,4.29e-05,2.78e-05,2.578e-05,5.192e-05,3.706e-05
766,4.402e-05,9.424e-06,4.776e-05,4.83e-05,2.232e-05,3.652e-05,1.0404e-05,3.28e-05,5.202e-06,2.266e-05,5.124e-05,3.172e-05,5.996e-05,5.78e-05,6.306e-05,5.522e-05,5.598e-05,5.404e-05,4.96e-05,5.278e-05,2.028e-05,2.33e-05,1.4972e-05,2.224e-05,1.2688e-05,2.226e-05,1.5828e-05,1.8204e-05,1.35e-05,1.5612e-05,7.69e-05,4.77e-05,1.1082e-06,7.302e-06,4.776e-05,4.268e-05,4.766e-05,2.388e-05,5.816e-05,4.662e-05
768,4.802e-05,1.1134e-05,3.992e-05,3.384e-05,3.222e-05,3.902e-05,1.4428e-05,3.452e-05,4.41e-06,1.2878e-05,4.384e-05,3.316e-05,4.636e-05,6.032e-05,7.016e-05,5.082e-05,3.788e-05,3.886e-05,3.958e-05,5.346e-05,2.112e-05,2.31e-05,2.12e-05,1.914e-05,1.5232e-05,2.242e-05,1.6216e-05,1.6986e-05,1.341e-05,1.6278e-05,5.478e-05,3.612e-05,6.162e-07,2.246e-05,2.322e-05,4.534e-05,2.294e-05,2.384e-05,5.518e-05,4.176e-05
770,4.68e-05,2.172e-05,5.758e-05,4.182e-05,3.798e-05,5.678e-05,6.974e-06,2.356e-05,8.746e-06,2.064e-05,4.176e-05,3.438e-05,5.346e-05,5.464e-05,5.326e-05,4.886e-05,3.764e-05,3.728e-05,3.298e-05,5.94e-05,2.136e-05,1.9426e-05,1.6978e-05,2.21e-05,1.6006e-05,2.786e-05,1.7794e-05,2.288e-05,1.361e-05,1.4142e-05,7.704e-05,4.954e-05,1.8094e-05,1.2926e-05,6.058e-05,5.412e-05,5.438e-05,3.458e-05,8.25e-05,4.374e-05
772,4.608e-05,1.5304e-05,4.284e-05,5.656e-05,5.308e-05,5.342e-05,2.88e-05,3.494e-05,1.3812e-05,3.688e-05,4.74e-05,3.744e-05,4.972e-05,6.352e-05,5.428e-05,5.288e-05,4.142e-05,2.692e-05,3.004e-05,5.056e-05,2.564e-05,2.062e-05,1.883e-05,2.576e-05,1.6542e-05,2.084e-05,1.8062e-05,1.8954e-05,9.882e-06,1.4854e-05,5.996e-05,6.102e-05,2.648e-05,1.0818e-05,5.326e-05,5.422e-05,3.864e-05,3.634e-05,6.166e-05,3.38e-05
774,7.422e-05,3.322e-05,3.774e-05,5.054e-05,3.686e-05,5.394e-05,3.628e-05,4.184e-05,1.792e-05,3.878e-05,4.384e-05,2.94e-05,3.188e-05,6.352e-05,5.852e-05,4.816e-05,3.602e-05,3.512e-05,3.538e-05,5.008e-05,2.188e-05,2.008e-05,1.798e-05,2.27e-05,1.7878e-05,2.108e-05,1.845e-05,1.7932e-05,1.2026e-05,1.6166e-05,8.004e-05,5.734e-05,2.716e-05,1.1374e-05,5.03e-05,4.426e-05,3.654e-05,5.742e-05,7.684e-05,5.484e-05
776,6.026e-05,4.244e-05,5.174e-05,3.228e-05,5.342e-05,7.432e-05,3.4e-05,4.16e-05,2.174e-05,3.8e-05,5.222e-05,4.154e-05,4.122e-05,6.452e-05,5.898e-05,5.314e-05,3.16e-05,4.64e-05,3.062e-05,5.414e-05,2.652e-05,2.306e-05,1.607e-05,2.878e-05,2.11e-05,2.238e-05,1.8436e-05,2.452e-05,2.1e-05,1.7392e-05,8.952e-05,6.598e-05,6.048e-05,6.162e-06,5.738e-05,6.134e-05,4.976e-05,8.214e-05,8.244e-05,5.02e-05
778,7.702e-05,4.516e-05,4.886e-05,4.886e-05,7.068e-05,8.926e-05,4.906e-05,4.758e-05,3.418e-05,2.672e-05,3.716e-05,3.518e-05,4.35e-05,6.778e-05,7.27e-05,4.014e-05,2.814e-05,2.978e-05,3.262e-05,5.006e-05,2.558e-05,2.216e-05,2.052e-05,2.982e-05,2.404e-05,1.8054e-05,2.158e-05,2.498e-05,1.314e-05,1.781e-05,8.806e-05,7.496e-05,6.08e-05,3.914e-05,6.102e-05,7.15e-05,4.578e-05,7.936e-05,0.00011006,6.408e-05
780,8.724e-05,5.726e-05,4.59e-05,4.296e-05,8.5e-05,8.85e-05,5.702e-05,5.146e-05,4.03e-05,3.412e-05,4.706e-05,2.866e-05,2.928e-05,7.074e-05,6.658e-05,3.584e-05,2.254e-05,3.75e-05,1.0728e-05,4.374e-05,2.826e-05,2.52e-05,1.6984e-05,2.42e-05,2.488e-05,2.322e-05,1.9536e-05,3.03e-05,1.2704e-05,1.6832e-05,9.204e-05,7.588e-05,6.006e-05,4.102e-05,5.958e-05,9.204e-05,4.672e-05,0.0001083,0.00011452,3.796e-05
