Wavelength [nm],Background (Mel),Modulation (Mel),Background (LMS),Modulation (LMS)380,1.1874e-06,2.998e-07,1.0958e-05,5.74e-06,1.6936e-05,8.472e-06,8.738e-06,3.188e-06,6.158e-06,3.866e-06,5.568e-06,7.266e-06,1.028e-05,1.4982e-05,1.6278e-05,1.3486e-05,8.686e-06,1.5344e-05,1.4232e-05,8.684e-06,3.832e-06,4.324e-06,5.192e-06,2.99e-06,3.692e-06,5.768e-06,7.034e-06,6.47e-06,2.202e-06,5.932e-06,3.298e-05,1.6148e-05,3.768e-05,1.712e-05,1.6942e-05,1.6668e-05,2.398e-05,2.782e-05,2.342e-05,2.018e-05
382,3.808e-06,4.278e-06,1.1482e-05,8.812e-06,1.1422e-05,3.402e-06,5.182e-06,5.41e-06,9.444e-06,6.032e-06,6.384e-06,1.6398e-05,8.692e-06,1.7608e-05,9.546e-06,1.42e-05,1.1346e-05,1.6516e-05,1.1676e-05,7.94e-06,4.078e-06,5.35e-06,5.054e-06,5.12e-06,4.564e-06,7.198e-06,7.61e-06,6.51e-06,3.77e-06,6.504e-06,2.702e-05,1.3848e-05,2.598e-05,1.231e-05,2.194e-05,6.77e-06,2.188e-05,2.468e-05,1.5648e-05,1.0876e-05
384,2.376e-06,5.074e-07,1.498e-05,6.908e-06,1.2766e-05,3.918e-06,8.766e-06,4.356e-06,1.0062e-05,8.258e-06,6.578e-06,1.567e-05,8.086e-06,1.2866e-05,9.388e-06,1.1824e-05,1.2692e-05,1.4106e-05,1.4542e-05,3.672e-06,3.764e-06,5.014e-06,5.526e-06,3.556e-06,4.49e-06,7.382e-06,7.728e-06,5.98e-06,2.436e-06,5.364e-06,2.61e-05,1.0246e-05,2.66e-05,1.6722e-05,1.8012e-05,1.1232e-05,2.514e-05,2.426e-05,1.32e-05,1.4654e-05
386,4.554e-06,7.986e-07,1.2634e-05,9.068e-06,1.3662e-05,6.522e-06,6.394e-06,5.552e-06,8.084e-06,8.254e-06,1.0686e-05,1.3218e-05,8.39e-06,1.2586e-05,1.0042e-05,1.1854e-05,1.6238e-05,1.2712e-05,1.5372e-05,5.528e-06,3.904e-06,5.484e-06,5.554e-06,3.4e-06,4.18e-06,6.04e-06,8.176e-06,6.334e-06,2.586e-06,7.102e-06,2.226e-05,8.732e-06,2.246e-05,1.5554e-05,1.3348e-05,1.1368e-05,2.332e-05,2.768e-05,1.9562e-05,1.7e-05
388,5.374e-06,1.6806e-06,1.203e-05,9.758e-06,1.2694e-05,5.304e-06,7.976e-06,7.968e-06,7e-06,7.676e-06,6.638e-06,1.3232e-05,7.908e-06,1.4276e-05,1.163e-05,1.3982e-05,1.6954e-05,1.2394e-05,1.0566e-05,4.75e-06,4.164e-06,4.9e-06,4.902e-06,3.932e-06,4.9e-06,4.9e-06,9.08e-06,6.13e-06,3.238e-06,5.538e-06,2.766e-05,5.286e-06,2.284e-05,1.1722e-05,1.0598e-05,5.4e-06,2.322e-05,2.01e-05,1.2108e-05,2.25e-05
390,4.602e-06,1.3218e-06,1.1958e-05,7.656e-06,1.4392e-05,4.96e-06,8.368e-06,9.95e-06,1.0016e-05,1.0006e-05,7.24e-06,1.429e-05,1.0076e-05,1.3492e-05,1.0382e-05,1.2012e-05,1.489e-05,9.63e-06,8.534e-06,5.624e-06,2.638e-06,4.618e-06,3.928e-06,3.84e-06,4.732e-06,5.22e-06,9.25e-06,6.222e-06,2.252e-06,4.564e-06,2.852e-05,1.0272e-05,2.342e-05,1.3692e-05,1.0746e-05,7.718e-06,2.382e-05,2.354e-05,1.2528e-05,1.9796e-05
392,9e-07,2.214e-06,1.3202e-05,8.306e-06,1.6666e-05,6.91e-06,1.1326e-05,1.2942e-05,8.278e-06,1.0706e-05,9.738e-06,1.3614e-05,7.426e-06,1.2618e-05,1.2772e-05,1.1938e-05,1.6268e-05,8.952e-06,6.55e-06,4.248e-06,3.722e-06,5.336e-06,4.444e-06,3.408e-06,5.612e-06,4.964e-06,7.958e-06,6.658e-06,2.09e-06,4.024e-06,2.594e-05,1.3172e-05,2.024e-05,1.5384e-05,1.194e-05,8.188e-06,2.226e-05,2.44e-05,1.842e-05,1.1928e-05
394,2.094e-06,1.4658e-06,1.4274e-05,8.806e-06,1.3518e-05,5.37e-06,9.848e-06,6.942e-06,1.1012e-05,9.58e-06,5.788e-06,1.2866e-05,1.135e-05,9.98e-06,1.0548e-05,1.1924e-05,1.6426e-05,1.1334e-05,9.534e-06,4.688e-06,4.022e-06,5.372e-06,3.288e-06,5.368e-06,5.478e-06,3.542e-06,7.382e-06,6.766e-06,3.448e-06,3.546e-06,2.574e-05,1.532e-05,2.1e-05,1.4362e-05,6.44e-06,1.4242e-05,2.366e-05,2.74e-05,1.8196e-05,2.616e-05
396,7.056e-06,1.5386e-06,8.618e-06,9.09e-06,1.1796e-05,6.018e-06,1.1734e-05,1.1594e-05,1.0134e-05,8.884e-06,9.706e-06,1.1666e-05,7.958e-06,1.0996e-05,1.0644e-05,1.1752e-05,1.4104e-05,8.288e-06,9.576e-06,7.34e-06,2.762e-06,5.58e-06,4.856e-06,4.962e-06,5.77e-06,4.838e-06,7.388e-06,6.756e-06,1.7626e-06,2.132e-06,2.714e-05,2.222e-05,2.236e-05,9.728e-06,1.423e-05,1.0808e-05,2.104e-05,1.867e-05,1.6024e-05,2.008e-05
398,7.154e-06,6.054e-06,5.362e-06,7.426e-06,1.6064e-05,7.148e-06,8.722e-06,1.0374e-05,1.4254e-05,6.06e-06,7.562e-06,1.2334e-05,8.624e-06,1.1882e-05,1.2478e-05,8.542e-06,1.3718e-05,7.69e-06,9e-06,4.852e-06,2.584e-06,5.364e-06,3.816e-06,3.602e-06,5.556e-06,4.608e-06,7.454e-06,6.268e-06,3.62e-06,4.286e-06,2.33e-05,1.587e-05,1.5988e-05,1.4772e-05,6.8e-06,1.0048e-05,1.8654e-05,1.741e-05,1.6166e-05,1.5512e-05
400,6.222e-06,4.762e-06,7.234e-06,4.366e-06,1.8556e-05,7.006e-06,9.034e-06,1.1818e-05,1.0018e-05,9.074e-06,7.076e-06,1.1258e-05,8.882e-06,1.3036e-05,1.2136e-05,9.83e-06,1.1142e-05,7.854e-06,9.51e-06,6.026e-06,3.436e-06,5.116e-06,3.586e-06,4.652e-06,5.608e-06,3.384e-06,7.448e-06,6.516e-06,3.136e-06,3.436e-06,1.9146e-05,1.6772e-05,1.807e-05,1.5002e-05,2.952e-06,9.09e-06,2.214e-05,1.962e-05,1.5736e-05,1.657e-05
402,3.702e-06,6.74e-06,9.74e-06,5.88e-06,1.25e-05,4.612e-06,9.368e-06,1.065e-05,1.101e-05,9.52e-06,1.0216e-05,9.766e-06,7.78e-06,1.3192e-05,1.1296e-05,1.085e-05,1.1832e-05,6.658e-06,8.2e-06,5.04e-06,3.938e-06,5.238e-06,3.69e-06,4.338e-06,6.312e-06,4.22e-06,6.758e-06,6.458e-06,2.4e-06,2.636e-06,1.8458e-05,1.8656e-05,9.348e-06,1.4646e-05,5.782e-06,7.668e-06,1.773e-05,1.7282e-05,1.5258e-05,1.9888e-05
404,4.74e-06,6.816e-06,7.292e-06,6.622e-06,9.356e-06,3.872e-06,8.324e-06,1.0358e-05,1.0932e-05,1.1728e-05,8.856e-06,7.65e-06,9.268e-06,1.2368e-05,1.1182e-05,9.438e-06,1.1204e-05,7.37e-06,7.202e-06,5.008e-06,3.74e-06,4.808e-06,3.176e-06,3.814e-06,5.732e-06,3.986e-06,6.906e-06,6.744e-06,2.96e-06,2.78e-06,1.5732e-05,1.7282e-05,1.0872e-05,1.4746e-05,5.65e-06,8.516e-06,1.9494e-05,2.112e-05,1.762e-05,1.9182e-05
406,4.102e-06,6.25e-06,8.126e-06,5.224e-06,6.28e-06,5.69e-06,1.0716e-05,1.1704e-05,1.4014e-05,1.074e-05,8.44e-06,9.072e-06,7.486e-06,1.0894e-05,9.924e-06,9.692e-06,1.2708e-05,5.948e-06,7.498e-06,6.75e-06,2.966e-06,4.424e-06,3.93e-06,3.52e-06,5.592e-06,3.27e-06,6.222e-06,6.088e-06,3.414e-06,2.686e-06,1.577e-05,1.6616e-05,1.6096e-05,1.5126e-05,6.098e-06,1.2996e-05,2.218e-05,1.9942e-05,1.9778e-05,1.7836e-05
408,3.38e-06,6.148e-06,8.286e-06,1.9392e-06,1.1374e-05,8.082e-06,1.1466e-05,1.027e-05,1.5682e-05,8.286e-06,1.0182e-05,1.0354e-05,8.71e-06,1.0828e-05,9.204e-06,9.666e-06,1.085e-05,6.244e-06,7.578e-06,7.294e-06,2.262e-06,4.394e-06,2.722e-06,4.158e-06,5.052e-06,3.628e-06,5.994e-06,5.148e-06,3.15e-06,2.958e-06,1.7302e-05,1.8404e-05,1.341e-05,1.4888e-05,4.618e-06,1.3728e-05,1.7154e-05,2.074e-05,1.753e-05,2.032e-05
410,4.044e-06,1.1608e-05,9.026e-06,3.392e-06,1.0504e-05,7.036e-06,1.1002e-05,1.0344e-05,1.2786e-05,7.766e-06,9.918e-06,8.326e-06,6.584e-06,1.152e-05,1.0996e-05,1.1604e-05,1.0802e-05,4.922e-06,6.958e-06,7.904e-06,2.82e-06,3.874e-06,2.33e-06,3.872e-06,5.206e-06,3.984e-06,6.002e-06,5.116e-06,3.892e-06,2.898e-06,1.584e-05,2.074e-05,1.1608e-05,1.8918e-05,7.83e-06,1.4658e-05,1.5854e-05,2.6e-05,1.9566e-05,1.5826e-05
412,6.862e-06,1.1812e-05,9.548e-06,5.218e-06,6.652e-06,1.1114e-05,1.1756e-05,1.3268e-05,1.4594e-05,8.13e-06,9.768e-06,8.286e-06,8.67e-06,1.2536e-05,1.0546e-05,1.088e-05,1.404e-05,7.34e-06,7.762e-06,7.208e-06,2.524e-06,3.492e-06,2.276e-06,4.188e-06,5.54e-06,3.71e-06,5.038e-06,5.868e-06,3.5e-06,2.74e-06,2.094e-05,1.712e-05,1.5222e-05,1.6102e-05,1.2864e-05,1.551e-05,1.8224e-05,2.166e-05,1.8714e-05,2.074e-05
414,1.045e-05,1.2332e-05,9.732e-06,5.906e-06,1.0278e-05,1.4864e-05,1.2512e-05,1.6068e-05,1.7678e-05,1.517e-05,1.0354e-05,8.13e-06,9.362e-06,1.2606e-05,1.1482e-05,1.172e-05,1.001e-05,8.828e-06,8.93e-06,9.62e-06,3.84e-06,4.48e-06,3.654e-06,4.19e-06,5e-06,3.744e-06,5.486e-06,5.804e-06,3.956e-06,2.786e-06,2.246e-05,2.188e-05,1.864e-05,1.8196e-05,1.3048e-05,1.8982e-05,2.208e-05,2.474e-05,2.578e-05,2.446e-05
416,2.056e-05,2.364e-05,2.072e-05,1.7078e-05,1.9454e-05,2.358e-05,2.34e-05,2.55e-05,2.894e-05,2.538e-05,1.3894e-05,1.1114e-05,1.2986e-05,1.3228e-05,1.385e-05,1.3824e-05,1.3772e-05,1.1492e-05,1.0128e-05,1.2666e-05,4.694e-06,4.3e-06,3.75e-06,4.594e-06,4.816e-06,4.336e-06,4.926e-06,5.652e-06,4.26e-06,3.424e-06,3.286e-05,3.72e-05,3.102e-05,3.416e-05,3.124e-05,3.44e-05,3.616e-05,4.244e-05,4.002e-05,4.066e-05
418,5.002e-05,5.112e-05,5.07e-05,4.72e-05,5.03e-05,5.286e-05,5.37e-05,5.51e-05,5.792e-05,5.5e-05,2.104e-05,1.869e-05,2.216e-05,2.1e-05,2.26e-05,2.27e-05,2.16e-05,1.8968e-05,1.7994e-05,2.206e-05,5.642e-06,5.372e-06,5.556e-06,6.036e-06,5.686e-06,6.134e-06,5.922e-06,6.638e-06,6.392e-06,5.132e-06,7.116e-05,7.702e-05,7.058e-05,7.44e-05,7.302e-05,7.668e-05,7.542e-05,8.152e-05,7.678e-05,8.232e-05
420,0.00010588,0.0001058,0.0001064,0.00010022,0.00010544,0.00010826,0.00010858,0.00011046,0.0001127,0.0001096,3.716e-05,3.452e-05,3.732e-05,3.62e-05,3.774e-05,3.948e-05,3.716e-05,3.55e-05,3.478e-05,3.802e-05,8.37e-06,8.096e-06,7.938e-06,8.666e-06,8.378e-06,9.024e-06,8.898e-06,9.122e-06,9.584e-06,8.504e-06,0.00014332,0.00014804,0.000143,0.00014274,0.00014338,0.0001482,0.00014872,0.00015496,0.00015096,0.00015372
422,0.00018036,0.0001819,0.0001777,0.00017574,0.00017806,0.0001813,0.00018148,0.00018478,0.0001849,0.00018158,5.844e-05,5.588e-05,5.712e-05,5.654e-05,5.876e-05,6.05e-05,5.82e-05,5.612e-05,5.538e-05,5.864e-05,1.2496e-05,1.2126e-05,1.2156e-05,1.2574e-05,1.2934e-05,1.2422e-05,1.2236e-05,1.3442e-05,1.2852e-05,1.2572e-05,0.0002468,0.0002522,0.0002472,0.0002488,0.0002506,0.0002546,0.0002532,0.0002624,0.0002598,0.0002572
424,0.0002578,0.0002606,0.0002592,0.0002562,0.0002576,0.000259,0.000259,0.0002628,0.000264,0.0002624,8.076e-05,7.754e-05,7.882e-05,7.766e-05,8.112e-05,8.19e-05,8e-05,7.704e-05,7.67e-05,7.872e-05,1.7454e-05,1.7884e-05,1.7144e-05,1.7868e-05,1.7242e-05,1.7844e-05,1.6924e-05,1.848e-05,1.7866e-05,1.7248e-05,0.0003872,0.000389,0.0003882,0.0003896,0.00039,0.0003984,0.0003932,0.0003994,0.0003982,0.0003964
426,0.0003326,0.0003366,0.0003324,0.0003318,0.000335,0.0003336,0.0003322,0.0003376,0.0003372,0.000335,0.00010238,9.966e-05,0.00010022,9.956e-05,0.00010294,0.00010216,9.984e-05,9.964e-05,9.9e-05,0.00010172,2.41e-05,2.408e-05,2.402e-05,2.428e-05,2.512e-05,2.516e-05,2.37e-05,2.5e-05,2.476e-05,2.464e-05,0.0005706,0.0005732,0.0005712,0.0005724,0.0005754,0.000579,0.0005776,0.0005844,0.0005826,0.0005838
428,0.000401,0.0004026,0.0003972,0.0003966,0.0003998,0.0003986,0.000397,0.0004002,0.0003986,0.0003988,0.00012358,0.00011954,0.00011968,0.00011832,0.00012168,0.0001221,0.00011836,0.00011812,0.00011786,0.00012232,3.196e-05,3.15e-05,3.126e-05,3.238e-05,3.258e-05,3.24e-05,3.17e-05,3.344e-05,3.342e-05,3.21e-05,0.0007812,0.0007854,0.000785,0.0007838,0.0007914,0.0007932,0.0007926,0.0007994,0.0007956,0.0007978
430,0.0004502,0.000453,0.0004482,0.0004468,0.0004502,0.0004512,0.0004504,0.0004524,0.000452,0.0004514,0.00013806,0.00013516,0.00013606,0.00013496,0.00013738,0.00013692,0.00013366,0.00013456,0.00013448,0.0001368,3.948e-05,3.846e-05,3.872e-05,4e-05,3.932e-05,3.978e-05,3.928e-05,3.956e-05,4.134e-05,3.986e-05,0.0009812,0.0009866,0.0009836,0.000981,0.0009902,0.0009932,0.000988,0.000996,0.0009936,0.0009966
432,0.0004806,0.000483,0.0004776,0.0004788,0.0004786,0.000482,0.0004816,0.0004844,0.0004826,0.0004828,0.00014708,0.00014348,0.00014494,0.00014506,0.00014658,0.0001458,0.00014458,0.00014486,0.0001437,0.00014762,4.552e-05,4.522e-05,4.458e-05,4.596e-05,4.514e-05,4.64e-05,4.614e-05,4.67e-05,4.736e-05,4.648e-05,0.001128,0.0011304,0.0011298,0.0011296,0.0011394,0.0011394,0.0011344,0.0011422,0.0011412,0.0011372
434,0.0004764,0.0004778,0.0004726,0.0004726,0.0004716,0.0004746,0.0004738,0.0004764,0.0004748,0.0004728,0.00014758,0.00014364,0.00014524,0.0001447,0.00014698,0.00014622,0.000144,0.00014458,0.00014368,0.00014656,5.046e-05,4.984e-05,4.924e-05,4.976e-05,4.958e-05,5.112e-05,5.004e-05,5.068e-05,5.144e-05,5.118e-05,0.0011996,0.0011968,0.0011998,0.0011986,0.0012064,0.0012062,0.0012018,0.0012084,0.0012072,0.0012052
436,0.0004172,0.0004192,0.0004134,0.0004142,0.0004108,0.00041,0.000409,0.0004104,0.0004114,0.000409,0.00013248,0.0001298,0.00012858,0.00012892,0.00013252,0.00012836,0.00012744,0.0001282,0.00012716,0.00013016,5.222e-05,5.126e-05,5.074e-05,5.21e-05,5.116e-05,5.22e-05,5.078e-05,5.154e-05,5.262e-05,5.23e-05,0.0011804,0.001182,0.0011804,0.0011814,0.0011852,0.0011842,0.001178,0.0011832,0.0011808,0.0011768
438,0.00031,0.0003122,0.000307,0.0003094,0.0003048,0.0002994,0.0002992,0.0003,0.0003008,0.0002966,0.00010506,0.00010122,0.00010198,0.00010108,0.00010422,0.00010088,9.828e-05,9.904e-05,9.812e-05,0.00010256,5.04e-05,5.054e-05,4.948e-05,5.044e-05,4.998e-05,5.132e-05,4.944e-05,5.002e-05,5.15e-05,5.052e-05,0.0010878,0.0010892,0.0010896,0.0010888,0.0010964,0.001085,0.0010786,0.001082,0.0010796,0.001076
440,0.00018666,0.0001901,0.0001847,0.00018644,0.00018206,0.00017744,0.00017592,0.0001774,0.00017644,0.00017448,7.284e-05,6.952e-05,7.11e-05,7.092e-05,7.382e-05,7.012e-05,6.782e-05,6.826e-05,6.578e-05,7.148e-05,4.802e-05,4.7e-05,4.784e-05,4.824e-05,4.718e-05,4.786e-05,4.652e-05,4.754e-05,4.806e-05,4.75e-05,0.0009352,0.0009346,0.0009328,0.0009328,0.0009418,0.0009234,0.0009168,0.0009138,0.0009178,0.0009072
442,9.622e-05,0.00010076,9.424e-05,9.584e-05,9.1e-05,9.092e-05,8.892e-05,9.07e-05,8.936e-05,8.728e-05,5.044e-05,4.918e-05,4.958e-05,4.926e-05,5.26e-05,4.814e-05,4.674e-05,4.854e-05,4.634e-05,4.906e-05,4.41e-05,4.418e-05,4.438e-05,4.468e-05,4.284e-05,4.348e-05,4.248e-05,4.236e-05,4.302e-05,4.344e-05,0.000726,0.0007236,0.0007238,0.0007236,0.0007296,0.0007042,0.0006986,0.0006998,0.0007012,0.0006926
444,6.24e-05,6.662e-05,6.164e-05,6.488e-05,5.758e-05,6.176e-05,6.02e-05,6.17e-05,6.05e-05,5.902e-05,4.462e-05,4.188e-05,4.448e-05,4.208e-05,4.522e-05,4.374e-05,4.214e-05,4.42e-05,4.14e-05,4.434e-05,4.058e-05,4.01e-05,4.106e-05,4.072e-05,3.972e-05,3.966e-05,3.874e-05,3.842e-05,3.986e-05,3.956e-05,0.0005146,0.000509,0.000511,0.0005124,0.000516,0.0004922,0.0004882,0.0004876,0.0004882,0.0004802
446,5.784e-05,5.934e-05,5.552e-05,5.786e-05,5.382e-05,5.516e-05,5.372e-05,5.482e-05,5.326e-05,5.406e-05,4.412e-05,4.352e-05,4.426e-05,4.28e-05,4.536e-05,4.334e-05,4.192e-05,4.508e-05,4.3e-05,4.494e-05,3.796e-05,3.748e-05,3.79e-05,3.826e-05,3.732e-05,3.744e-05,3.646e-05,3.634e-05,3.764e-05,3.784e-05,0.0003198,0.0003134,0.0003202,0.0003162,0.000321,0.0003036,0.0002988,0.0002954,0.000299,0.0002932
448,5.952e-05,6.11e-05,5.68e-05,6e-05,5.698e-05,5.582e-05,5.588e-05,5.69e-05,5.574e-05,5.556e-05,4.856e-05,4.702e-05,4.71e-05,4.606e-05,4.9e-05,4.656e-05,4.654e-05,4.95e-05,4.602e-05,4.62e-05,3.838e-05,3.818e-05,3.816e-05,3.838e-05,3.74e-05,3.82e-05,3.72e-05,3.672e-05,3.78e-05,3.822e-05,0.00018816,0.00018074,0.00018704,0.00018314,0.00018706,0.00017986,0.00017354,0.00017138,0.00017472,0.0001682
450,6.328e-05,6.484e-05,6.188e-05,6.534e-05,6.254e-05,5.99e-05,6.098e-05,6.178e-05,6.066e-05,6.144e-05,5.234e-05,5.058e-05,5.014e-05,4.89e-05,5.39e-05,4.99e-05,5.076e-05,5.376e-05,4.898e-05,5.134e-05,4.068e-05,4.062e-05,4.102e-05,4.088e-05,3.984e-05,4.098e-05,4.018e-05,3.996e-05,4.054e-05,4.078e-05,0.0001292,0.00012542,0.00012966,0.00012538,0.00012812,0.00012734,0.0001218,0.0001199,0.00012124,0.00011706
452,6.52e-05,6.812e-05,6.562e-05,6.808e-05,6.346e-05,6.24e-05,6.386e-05,6.454e-05,6.188e-05,6.22e-05,5.504e-05,5.274e-05,5.342e-05,5.288e-05,5.624e-05,5.244e-05,5.374e-05,5.604e-05,5.264e-05,5.334e-05,4.372e-05,4.336e-05,4.37e-05,4.348e-05,4.266e-05,4.384e-05,4.252e-05,4.252e-05,4.374e-05,4.336e-05,0.00011174,0.0001092,0.00011258,0.00010758,0.0001135,0.00011262,0.00010996,0.00010338,0.0001068,0.00010418
454,6.458e-05,6.718e-05,6.398e-05,6.872e-05,6.39e-05,6.216e-05,6.314e-05,6.552e-05,6.178e-05,6.31e-05,5.52e-05,5.378e-05,5.512e-05,5.354e-05,5.812e-05,5.312e-05,5.454e-05,5.65e-05,5.338e-05,5.242e-05,4.474e-05,4.45e-05,4.544e-05,4.494e-05,4.436e-05,4.518e-05,4.492e-05,4.4e-05,4.446e-05,4.494e-05,0.00010832,0.00010262,0.00010676,0.0001026,0.00010558,0.0001095,0.00010578,9.778e-05,9.986e-05,9.798e-05
456,6.592e-05,6.704e-05,6.412e-05,6.676e-05,6.592e-05,6.378e-05,6.636e-05,6.324e-05,6.02e-05,6.446e-05,5.434e-05,5.606e-05,5.514e-05,5.432e-05,5.806e-05,5.368e-05,5.686e-05,5.696e-05,5.424e-05,5.486e-05,4.624e-05,4.576e-05,4.688e-05,4.654e-05,4.65e-05,4.74e-05,4.692e-05,4.618e-05,4.63e-05,4.694e-05,0.00010644,0.00010146,0.0001068,0.00010326,0.00010458,0.00010704,0.0001021,0.00010186,0.00010116,0.00010022
458,6.844e-05,6.748e-05,6.722e-05,7.026e-05,6.854e-05,6.606e-05,6.776e-05,6.598e-05,6.308e-05,6.676e-05,5.824e-05,5.964e-05,5.75e-05,5.786e-05,6.088e-05,5.7e-05,5.984e-05,6.142e-05,5.756e-05,5.704e-05,5.008e-05,4.956e-05,5.046e-05,4.948e-05,4.952e-05,5.082e-05,5.016e-05,4.964e-05,5.072e-05,5.038e-05,0.00010774,0.00010604,0.0001068,0.00010452,0.00010714,0.00010994,0.00010596,0.00010596,0.00010332,0.00010258
460,7.04e-05,7.262e-05,7.156e-05,7.422e-05,6.784e-05,6.86e-05,7.106e-05,6.802e-05,6.808e-05,7.008e-05,6.18e-05,6.288e-05,6.236e-05,6.264e-05,6.426e-05,6.124e-05,6.24e-05,6.714e-05,6.344e-05,6.018e-05,5.334e-05,5.384e-05,5.4e-05,5.34e-05,5.268e-05,5.474e-05,5.362e-05,5.35e-05,5.398e-05,5.416e-05,0.00011216,0.00010878,0.00011104,0.00010732,0.0001062,0.00011288,0.00011054,0.00010648,0.0001069,0.0001048
462,7.514e-05,7.706e-05,7.564e-05,7.85e-05,7.286e-05,7.126e-05,7.508e-05,7.12e-05,7.074e-05,7.344e-05,6.466e-05,6.614e-05,6.656e-05,6.588e-05,6.956e-05,6.448e-05,6.81e-05,6.974e-05,6.614e-05,6.476e-05,5.674e-05,5.736e-05,5.816e-05,5.762e-05,5.678e-05,5.862e-05,5.846e-05,5.732e-05,5.754e-05,5.806e-05,0.00011244,0.00011056,0.00011206,0.00011102,0.00011032,0.00011532,0.00011338,0.0001091,0.00011102,0.00010512
464,7.798e-05,7.96e-05,7.95e-05,8.216e-05,7.942e-05,7.538e-05,7.958e-05,7.686e-05,7.534e-05,7.886e-05,6.89e-05,7.02e-05,7.068e-05,6.988e-05,7.29e-05,6.73e-05,7.056e-05,7.346e-05,7.026e-05,6.858e-05,6.142e-05,6.196e-05,6.244e-05,6.156e-05,6.096e-05,6.246e-05,6.19e-05,6.19e-05,6.198e-05,6.16e-05,0.00011702,0.00011388,0.00011298,0.00011346,0.00011336,0.00011854,0.00011626,0.00011074,0.00011428,0.00011048
466,8.192e-05,8.278e-05,8.282e-05,8.576e-05,8.468e-05,8.228e-05,8.522e-05,8.208e-05,8.018e-05,8.398e-05,7.338e-05,7.646e-05,7.6e-05,7.564e-05,7.76e-05,7.248e-05,7.64e-05,7.758e-05,7.574e-05,7.424e-05,6.648e-05,6.666e-05,6.832e-05,6.676e-05,6.634e-05,6.796e-05,6.736e-05,6.72e-05,6.678e-05,6.716e-05,0.00012196,0.00011752,0.00012378,0.0001178,0.0001202,0.00012456,0.00012074,0.00011718,0.0001211,0.000116
468,9.038e-05,8.982e-05,9.012e-05,9.384e-05,9.254e-05,8.956e-05,9.072e-05,9.042e-05,8.732e-05,9.202e-05,8.146e-05,8.348e-05,8.428e-05,8.182e-05,8.63e-05,8.136e-05,8.316e-05,8.562e-05,8.316e-05,8.068e-05,7.316e-05,7.418e-05,7.482e-05,7.36e-05,7.362e-05,7.47e-05,7.462e-05,7.508e-05,7.392e-05,7.466e-05,0.00012858,0.00012508,0.00012566,0.00012612,0.00012466,0.00012936,0.00012754,0.00012744,0.0001285,0.00012222
470,9.092e-05,8.9e-05,9.314e-05,9.442e-05,9.596e-05,8.902e-05,9.374e-05,9.044e-05,8.886e-05,9.064e-05,8.246e-05,8.564e-05,8.35e-05,8.662e-05,8.71e-05,8.306e-05,8.63e-05,8.922e-05,8.522e-05,8.418e-05,7.66e-05,7.714e-05,7.806e-05,7.758e-05,7.686e-05,7.842e-05,7.81e-05,7.826e-05,7.738e-05,7.824e-05,0.00012852,0.00012404,0.00013028,0.0001263,0.00012406,0.00012882,0.00013094,0.00012888,0.0001299,0.00012748
472,8.852e-05,9.032e-05,9.268e-05,9.28e-05,9.43e-05,9e-05,9.302e-05,9.02e-05,8.764e-05,9.18e-05,8.368e-05,8.578e-05,8.57e-05,8.574e-05,8.72e-05,8.35e-05,8.622e-05,8.904e-05,8.516e-05,8.518e-05,7.79e-05,7.822e-05,7.98e-05,7.878e-05,7.818e-05,7.99e-05,7.972e-05,7.968e-05,7.838e-05,7.918e-05,0.00012772,0.0001237,0.00012686,0.00012518,0.00012274,0.00013042,0.0001308,0.00012828,0.00012564,0.0001255
474,8.772e-05,8.924e-05,9.292e-05,9.152e-05,9.47e-05,8.952e-05,9.292e-05,8.84e-05,8.826e-05,9.138e-05,8.368e-05,8.642e-05,8.616e-05,8.72e-05,8.716e-05,8.422e-05,8.658e-05,8.86e-05,8.468e-05,8.542e-05,7.934e-05,7.946e-05,8.058e-05,8.042e-05,7.95e-05,8.076e-05,8.106e-05,8.14e-05,8.014e-05,8.01e-05,0.00012428,0.0001202,0.00012316,0.000123,0.00012168,0.00012588,0.00012658,0.00012574,0.00012432,0.00012722
476,8.456e-05,8.416e-05,8.934e-05,8.826e-05,8.78e-05,8.724e-05,8.95e-05,8.528e-05,8.534e-05,8.66e-05,8.07e-05,8.348e-05,8.528e-05,8.594e-05,8.54e-05,8.186e-05,8.496e-05,8.658e-05,8.416e-05,8.418e-05,7.858e-05,7.896e-05,7.94e-05,7.966e-05,7.876e-05,7.952e-05,8.004e-05,8.044e-05,7.858e-05,7.924e-05,0.00011762,0.00011336,0.0001191,0.00011878,0.00011574,0.00011834,0.00012066,0.00011762,0.00011942,0.00011946
478,8.354e-05,8.282e-05,8.902e-05,8.794e-05,8.684e-05,8.524e-05,8.726e-05,8.406e-05,8.368e-05,8.788e-05,8.208e-05,8.33e-05,8.502e-05,8.466e-05,8.512e-05,8.184e-05,8.614e-05,8.65e-05,8.4e-05,8.372e-05,7.962e-05,8.016e-05,8.046e-05,8.044e-05,7.966e-05,8.108e-05,8.052e-05,8.114e-05,7.918e-05,7.998e-05,0.00011506,0.0001104,0.0001174,0.00011494,0.00011224,0.0001148,0.00011838,0.00011368,0.0001173,0.00011424
480,8.688e-05,8.502e-05,9.108e-05,8.954e-05,9.232e-05,8.82e-05,8.932e-05,8.782e-05,8.638e-05,8.934e-05,8.666e-05,8.856e-05,8.98e-05,9.01e-05,9.074e-05,8.73e-05,8.958e-05,8.9e-05,8.916e-05,8.918e-05,8.608e-05,8.64e-05,8.644e-05,8.638e-05,8.548e-05,8.604e-05,8.64e-05,8.666e-05,8.56e-05,8.588e-05,0.00011786,0.00011354,0.00011434,0.00011702,0.0001149,0.00011556,0.0001182,0.00011768,0.0001209,0.00011696
482,9.414e-05,9.094e-05,9.584e-05,9.5e-05,9.84e-05,9.38e-05,9.624e-05,9.358e-05,9.024e-05,9.482e-05,9.428e-05,9.822e-05,9.848e-05,9.836e-05,9.766e-05,9.602e-05,9.696e-05,9.792e-05,9.74e-05,9.716e-05,9.46e-05,9.516e-05,9.498e-05,9.516e-05,9.47e-05,9.386e-05,9.378e-05,9.464e-05,9.416e-05,9.406e-05,0.0001225,0.0001204,0.00012486,0.0001228,0.00012158,0.0001213,0.00012466,0.00012236,0.00012402,0.0001232
484,9.47e-05,9.238e-05,9.716e-05,9.64e-05,9.624e-05,9.59e-05,9.694e-05,9.378e-05,9.316e-05,9.596e-05,0.00010084,0.00010426,0.00010292,0.00010462,0.00010258,0.00010182,0.00010362,0.00010504,0.0001023,0.00010354,9.996e-05,9.962e-05,0.0001004,0.00010016,9.97e-05,9.932e-05,9.972e-05,9.96e-05,9.878e-05,9.886e-05,0.00012244,0.0001207,0.00012672,0.00012478,0.00012358,0.00012388,0.00012482,0.00012264,0.00012504,0.0001258
486,9.302e-05,9.274e-05,9.588e-05,9.442e-05,9.588e-05,9.45e-05,9.328e-05,9.256e-05,9.184e-05,9.438e-05,0.00010852,0.00011104,0.00011164,0.00011232,0.0001121,0.00011086,0.00011042,0.0001132,0.00011076,0.0001126,0.00010394,0.00010412,0.00010466,0.0001038,0.00010388,0.00010312,0.00010402,0.0001036,0.0001028,0.00010354,0.0001222,0.00012138,0.00012436,0.00012334,0.0001206,0.00012022,0.00012384,0.00011782,0.0001228,0.0001239
488,9.282e-05,9.234e-05,9.654e-05,9.474e-05,9.584e-05,9.256e-05,9.458e-05,9.306e-05,9.374e-05,9.434e-05,0.0001409,0.00014244,0.00014294,0.00014464,0.00014248,0.00014498,0.00014468,0.0001473,0.00014586,0.00014634,0.00011794,0.0001181,0.00011822,0.00011764,0.00011782,0.00011778,0.00011848,0.00011852,0.00011778,0.00011848,0.00012368,0.00012434,0.00012462,0.00012524,0.00012258,0.0001225,0.00012636,0.000122,0.00012384,0.00012666
490,9.746e-05,9.574e-05,9.932e-05,9.73e-05,9.884e-05,9.69e-05,0.00010028,9.71e-05,9.656e-05,9.882e-05,0.0002616,0.0002634,0.0002642,0.0002654,0.0002638,0.0002752,0.0002758,0.0002752,0.0002756,0.000278,0.00017278,0.00017316,0.00017252,0.00017224,0.00017214,0.0001761,0.00017728,0.00017766,0.000177,0.00017756,0.00013454,0.00013492,0.00013626,0.00013762,0.00013722,0.00013446,0.00013842,0.0001366,0.00014,0.00014098
492,0.0001057,0.00010162,0.00010632,0.00010504,0.00010584,0.0001035,0.0001051,0.0001043,0.00010492,0.00010528,0.0005862,0.000591,0.0005904,0.0005892,0.000588,0.0006176,0.0006208,0.00062,0.0006188,0.000623,0.0003248,0.0003264,0.000325,0.0003256,0.0003248,0.0003372,0.0003388,0.0003392,0.0003388,0.0003402,0.00016402,0.0001629,0.00016714,0.00016444,0.00016676,0.0001624,0.00016694,0.0001632,0.00016956,0.00016678
494,0.00010834,0.00010852,0.00011248,0.00010764,0.00010872,0.00010824,0.0001101,0.0001092,0.0001085,0.00010814,0.001218,0.001224,0.0012198,0.0012208,0.0012174,0.0012646,0.001267,0.0012672,0.001265,0.00127,0.0006278,0.0006294,0.000627,0.0006278,0.0006266,0.0006486,0.0006496,0.0006498,0.0006496,0.000652,0.0002066,0.000209,0.000212,0.0002094,0.0002078,0.000208,0.0002108,0.0002082,0.0002138,0.0002134
496,0.00011288,0.000112,0.0001127,0.00011324,0.00011468,0.00011394,0.000113,0.0001128,0.00011282,0.00011238,0.0019368,0.0019442,0.0019394,0.0019364,0.0019376,0.0019854,0.001988,0.0019862,0.0019866,0.001991,0.0009612,0.000962,0.0009602,0.0009606,0.0009602,0.0009824,0.0009838,0.0009838,0.0009838,0.0009864,0.0002502,0.000255,0.000258,0.0002538,0.0002554,0.0002508,0.0002566,0.0002558,0.0002586,0.000255
498,0.00012478,0.00012434,0.00012454,0.00012386,0.00012534,0.0001282,0.00012664,0.00012564,0.00012662,0.00012552,0.002654,0.002658,0.002654,0.002652,0.002654,0.002694,0.002694,0.002694,0.002694,0.0027,0.0012442,0.0012442,0.001243,0.001243,0.001243,0.0012582,0.0012606,0.0012606,0.0012606,0.0012628,0.0002912,0.0002926,0.0002952,0.0002934,0.0002924,0.000287,0.0002928,0.0002918,0.0002944,0.0002948
500,0.00015016,0.00015062,0.00015048,0.00014636,0.00015022,0.00015572,0.00015322,0.00015178,0.0001538,0.00015208,0.003326,0.00333,0.003324,0.003326,0.003324,0.003354,0.003356,0.003354,0.003356,0.003362,0.0014384,0.0014376,0.0014358,0.0014376,0.0014366,0.0014436,0.0014458,0.0014456,0.0014456,0.0014478,0.0003166,0.0003184,0.000322,0.0003202,0.0003188,0.000313,0.000314,0.0003144,0.0003182,0.000318
502,0.00018582,0.00018414,0.0001844,0.00018186,0.00018528,0.00019072,0.00018842,0.00018678,0.00018906,0.00018802,0.003912,0.003918,0.00391,0.003914,0.003912,0.003928,0.00393,0.003926,0.00393,0.003938,0.0015522,0.0015512,0.0015504,0.0015518,0.001551,0.0015488,0.0015502,0.0015504,0.001551,0.0015526,0.0003328,0.0003338,0.0003358,0.0003338,0.0003334,0.0003252,0.000329,0.0003272,0.0003324,0.0003332
504,0.0002162,0.0002138,0.0002142,0.0002136,0.0002144,0.0002202,0.000218,0.0002156,0.000219,0.0002176,0.00436,0.004364,0.004354,0.004358,0.004358,0.004362,0.00436,0.004358,0.004362,0.00437,0.0016106,0.0016092,0.0016088,0.0016104,0.0016092,0.0016012,0.0016032,0.001603,0.0016034,0.001605,0.0003402,0.0003414,0.0003466,0.0003404,0.0003402,0.000331,0.0003348,0.0003334,0.0003362,0.0003364
506,0.0002356,0.0002342,0.0002328,0.0002318,0.0002352,0.0002364,0.0002348,0.0002328,0.0002362,0.0002342,0.004578,0.00458,0.00457,0.004574,0.004576,0.004562,0.00456,0.004558,0.004562,0.004568,0.0016088,0.0016072,0.0016064,0.0016082,0.0016078,0.0015996,0.0016014,0.0016016,0.001601,0.0016022,0.0003358,0.000339,0.0003414,0.000338,0.0003368,0.0003286,0.000326,0.000331,0.0003314,0.0003302
508,0.0002442,0.0002424,0.0002414,0.0002412,0.0002412,0.0002422,0.0002402,0.000239,0.0002412,0.0002408,0.004452,0.004452,0.004446,0.00445,0.004454,0.004414,0.004412,0.004408,0.004412,0.004418,0.001493,0.001491,0.0014914,0.0014928,0.0014928,0.0014822,0.0014838,0.0014832,0.0014832,0.001483,0.0003126,0.0003158,0.000318,0.000317,0.0003182,0.0003064,0.0003072,0.00031,0.0003108,0.0003086
510,0.0002462,0.0002454,0.0002438,0.0002412,0.0002474,0.0002424,0.0002404,0.000239,0.0002438,0.0002408,0.003956,0.003956,0.003952,0.003956,0.003962,0.003898,0.003894,0.00389,0.003898,0.0039,0.0012184,0.001216,0.0012174,0.0012188,0.0012192,0.0011996,0.0012008,0.0011996,0.0011994,0.0011978,0.0002718,0.0002744,0.0002776,0.0002746,0.000276,0.0002648,0.0002674,0.0002648,0.0002682,0.0002662
512,0.0002424,0.0002436,0.0002404,0.0002388,0.0002422,0.0002398,0.0002366,0.0002372,0.000241,0.0002374,0.003196,0.003194,0.003192,0.003196,0.003202,0.003134,0.003128,0.003124,0.003132,0.003134,0.0008264,0.000824,0.0008262,0.0008272,0.0008272,0.0008002,0.0008008,0.0007998,0.0007996,0.0007968,0.0002238,0.0002274,0.0002306,0.0002264,0.0002288,0.0002192,0.0002204,0.000219,0.000222,0.0002184
514,0.0002282,0.0002276,0.000224,0.0002244,0.0002284,0.000226,0.000222,0.0002236,0.0002252,0.0002234,0.002376,0.002374,0.002372,0.002376,0.00238,0.002326,0.00232,0.002318,0.002324,0.002324,0.0004676,0.0004662,0.0004672,0.0004688,0.0004682,0.0004452,0.0004456,0.000445,0.000445,0.0004432,0.00018998,0.0001949,0.0001969,0.00019266,0.0001957,0.0001868,0.00018906,0.00018962,0.00019102,0.00018666
516,0.0002012,0.00019818,0.00019748,0.0001964,0.0002016,0.00019618,0.00019338,0.0001951,0.00019692,0.00019466,0.00165,0.001649,0.0016466,0.001651,0.0016528,0.001612,0.0016066,0.0016068,0.0016108,0.0016088,0.0002642,0.0002638,0.0002634,0.0002646,0.000264,0.0002516,0.0002522,0.0002516,0.0002524,0.0002512,0.00017748,0.0001805,0.0001826,0.00017894,0.00018146,0.00017534,0.0001755,0.00017718,0.00017526,0.0001784
518,0.00016926,0.0001673,0.00016664,0.00016512,0.00016824,0.00016534,0.00016222,0.00016366,0.00016548,0.00016376,0.0010206,0.0010188,0.0010176,0.0010198,0.0010226,0.0009882,0.0009848,0.000983,0.0009866,0.0009858,0.0001921,0.00019232,0.00019194,0.00019294,0.00019174,0.00018706,0.00018724,0.00018736,0.00018726,0.00018736,0.00017596,0.00017746,0.00018248,0.00017492,0.00018036,0.00017396,0.00017488,0.00017282,0.00017148,0.00017124
520,0.00015064,0.00014988,0.00014718,0.0001475,0.00014842,0.00014604,0.00014478,0.00014502,0.00014836,0.0001468,0.0005938,0.0005934,0.0005916,0.0005922,0.0005954,0.000573,0.0005712,0.000568,0.0005698,0.00057,0.00017748,0.00017698,0.00017686,0.0001778,0.00017676,0.00017356,0.0001736,0.00017322,0.00017436,0.00017426,0.00017866,0.00018234,0.00018144,0.00017962,0.00018054,0.00017518,0.00017688,0.00017666,0.00017856,0.0001775
522,0.00014496,0.0001446,0.00014232,0.00014122,0.00014212,0.0001404,0.00013934,0.00014058,0.0001418,0.00014074,0.0003914,0.0003922,0.0003902,0.000391,0.0003934,0.0003812,0.0003804,0.000379,0.0003802,0.0003808,0.00017202,0.00017216,0.00017152,0.00017248,0.00017118,0.00016836,0.00016816,0.0001685,0.00016934,0.00016888,0.00018198,0.00018496,0.00018424,0.0001815,0.00018356,0.00017804,0.0001798,0.00018068,0.0001799,0.0001805
524,0.0001457,0.00014442,0.00014114,0.00014244,0.00014318,0.00014084,0.00013996,0.00014064,0.00014282,0.00014194,0.0003186,0.00032,0.0003182,0.0003194,0.0003196,0.0003156,0.000314,0.0003126,0.000314,0.0003148,0.00016724,0.00016724,0.00016664,0.00016742,0.00016648,0.00016328,0.00016368,0.00016368,0.00016432,0.00016402,0.00018522,0.0001881,0.00018702,0.00018352,0.00018716,0.00018264,0.00018288,0.00018524,0.00018116,0.00018154
526,0.00014916,0.00014594,0.00014328,0.00014542,0.00014544,0.00014382,0.00014214,0.000143,0.00014544,0.00014426,0.000293,0.000295,0.0002922,0.0002934,0.0002948,0.0002912,0.00029,0.000289,0.0002896,0.0002902,0.0001629,0.00016276,0.0001627,0.00016368,0.00016286,0.00015928,0.00016032,0.0001596,0.0001601,0.00016016,0.00018698,0.000191,0.0001892,0.00018594,0.00019126,0.00018632,0.00018572,0.00018788,0.00018484,0.00018484
528,0.00015126,0.00014982,0.0001476,0.00014812,0.0001461,0.0001447,0.00014596,0.00014656,0.00014794,0.00014572,0.0002766,0.0002782,0.000276,0.0002764,0.0002784,0.000275,0.0002734,0.0002726,0.0002728,0.0002734,0.00015932,0.00015906,0.00015866,0.0001593,0.00015888,0.00015556,0.00015596,0.00015538,0.00015604,0.00015606,0.00019118,0.0001942,0.00019634,0.00018984,0.00019276,0.00019018,0.00018936,0.0001898,0.0001875,0.00018852
530,0.00015344,0.00015142,0.00014934,0.00015052,0.00015022,0.00014802,0.00014862,0.00014898,0.00015016,0.00014868,0.0002608,0.0002608,0.0002588,0.0002592,0.0002606,0.0002592,0.000257,0.0002552,0.000256,0.0002572,0.00015472,0.000155,0.00015492,0.00015502,0.00015478,0.00015162,0.0001523,0.0001511,0.00015216,0.00015184,0.00019412,0.00019674,0.00019414,0.00019304,0.00019274,0.00019078,0.0001915,0.00018986,0.00018864,0.00019108
532,0.00015588,0.00015484,0.00015262,0.00015456,0.000153,0.00015122,0.00015072,0.00015138,0.00015108,0.00015156,0.0002476,0.0002488,0.0002468,0.000246,0.0002488,0.0002454,0.0002448,0.0002436,0.0002438,0.0002444,0.00015372,0.00015318,0.00015346,0.00015282,0.00015312,0.0001498,0.0001504,0.0001499,0.00015088,0.00015012,0.0001964,0.00019756,0.00019862,0.0001951,0.00019856,0.00019252,0.00019152,0.00019438,0.00019056,0.000192
534,0.00015874,0.0001574,0.00015582,0.0001574,0.0001561,0.0001544,0.00015318,0.0001531,0.00015456,0.00015378,0.0002374,0.0002388,0.000237,0.0002374,0.0002388,0.0002354,0.0002338,0.0002338,0.0002342,0.0002334,0.00015264,0.00015262,0.00015262,0.0001519,0.0001525,0.00014954,0.00015,0.00014944,0.00014976,0.00014948,0.000198,0.00019974,0.0002004,0.00019704,0.00019834,0.00019484,0.000195,0.00019476,0.00019218,0.00019302
536,0.00016132,0.00015976,0.0001595,0.0001592,0.0001586,0.00015456,0.00015648,0.00015642,0.00015862,0.00015674,0.0002286,0.0002302,0.0002286,0.000228,0.0002302,0.0002258,0.0002252,0.0002248,0.0002256,0.0002246,0.00015192,0.00015216,0.00015224,0.00015154,0.00015212,0.00014908,0.00015002,0.0001495,0.00014954,0.00014954,0.00019894,0.0002006,0.00019784,0.0001967,0.00019818,0.00019612,0.00019482,0.0001939,0.0001927,0.0001946
538,0.00016602,0.00016242,0.00016308,0.00016304,0.0001616,0.00015852,0.00015972,0.0001594,0.0001616,0.00015994,0.0002222,0.0002228,0.0002218,0.0002214,0.0002222,0.0002202,0.0002196,0.0002192,0.00022,0.0002188,0.00015206,0.00015224,0.00015236,0.00015166,0.00015228,0.00015004,0.00015084,0.00014962,0.00015026,0.00015018,0.00019762,0.0002004,0.00019664,0.000196,0.00019912,0.00019534,0.00019412,0.00019396,0.00019264,0.0001926
540,0.00016668,0.00016548,0.0001664,0.00016678,0.00016364,0.00016272,0.00016388,0.00016492,0.0001643,0.00016346,0.0002168,0.000218,0.0002178,0.0002172,0.0002178,0.0002146,0.000214,0.000215,0.000215,0.0002146,0.000153,0.0001529,0.00015306,0.00015248,0.00015352,0.00015088,0.0001516,0.0001505,0.00015096,0.0001509,0.0001973,0.00019724,0.0001977,0.00019498,0.00019762,0.00019402,0.00019424,0.0001938,0.0001904,0.00019062
542,0.00017122,0.0001711,0.00017132,0.00017052,0.0001711,0.00016782,0.00016838,0.0001679,0.00016932,0.00016948,0.0002132,0.0002138,0.000214,0.0002128,0.0002142,0.000211,0.0002122,0.0002122,0.000213,0.0002108,0.00015382,0.00015354,0.00015382,0.00015274,0.00015382,0.00015196,0.00015274,0.00015236,0.00015188,0.00015218,0.00019304,0.00019428,0.00019408,0.00019076,0.00019294,0.00018948,0.00019176,0.00019248,0.00018792,0.00018698
544,0.00017574,0.00017574,0.00017644,0.00017578,0.00017506,0.00017216,0.00017278,0.00017388,0.0001733,0.00017296,0.0002114,0.0002132,0.0002128,0.0002116,0.0002128,0.0002102,0.0002106,0.000211,0.0002116,0.0002106,0.0001555,0.00015536,0.00015578,0.00015482,0.00015534,0.00015412,0.00015438,0.00015406,0.00015394,0.00015444,0.00019056,0.00019098,0.00018976,0.00018868,0.00019136,0.00018798,0.00018776,0.00018866,0.00018446,0.0001867
546,0.00017818,0.0001774,0.00018018,0.00017874,0.00017808,0.00017528,0.00017556,0.00017648,0.0001774,0.0001757,0.0002098,0.0002116,0.0002122,0.0002104,0.000211,0.0002092,0.0002088,0.0002102,0.000209,0.000209,0.00015666,0.00015668,0.00015706,0.00015634,0.00015676,0.00015552,0.00015582,0.00015498,0.00015536,0.00015542,0.00018718,0.0001894,0.00018882,0.0001858,0.00018702,0.00018604,0.0001845,0.0001864,0.00018308,0.00018182
548,0.00018136,0.00018042,0.00018122,0.00018082,0.00017948,0.000178,0.0001786,0.00017758,0.00017896,0.0001784,0.000209,0.0002102,0.0002112,0.000208,0.0002102,0.0002078,0.0002076,0.0002094,0.000209,0.0002066,0.00015788,0.00015732,0.00015774,0.00015696,0.00015798,0.0001571,0.00015722,0.00015652,0.00015636,0.00015672,0.00018546,0.00018586,0.00018752,0.00018472,0.00018716,0.00018268,0.00018378,0.00018516,0.00018078,0.00018024
550,0.00018338,0.00018258,0.00018382,0.00018272,0.00017946,0.0001803,0.00018056,0.00017998,0.00018146,0.00018126,0.000209,0.000209,0.0002092,0.0002078,0.0002082,0.0002074,0.0002074,0.000209,0.0002084,0.0002064,0.0001586,0.00015878,0.00015916,0.00015792,0.00015928,0.0001586,0.00015806,0.00015794,0.00015796,0.00015842,0.00018736,0.00018576,0.00018866,0.00018416,0.000187,0.00018452,0.00018594,0.00018688,0.00018266,0.0001806
552,0.00018296,0.0001831,0.00018452,0.00018318,0.00018116,0.0001822,0.00017882,0.00018022,0.00018152,0.00018104,0.000208,0.0002084,0.000209,0.0002074,0.0002078,0.0002074,0.0002062,0.0002088,0.0002078,0.0002058,0.0001596,0.00015972,0.00016036,0.00015918,0.00016008,0.00015954,0.00015968,0.00015936,0.00015876,0.00015942,0.00019514,0.00019454,0.00019744,0.00019282,0.0001953,0.00019426,0.00019486,0.00019628,0.000193,0.00018766
554,0.00018194,0.00017988,0.00018212,0.00017972,0.00018038,0.00017936,0.00017736,0.0001784,0.00017932,0.00017806,0.0002066,0.0002082,0.000209,0.0002068,0.0002064,0.0002066,0.0002072,0.000208,0.0002088,0.0002064,0.00016058,0.00016014,0.00016098,0.00016014,0.00016122,0.00016056,0.00016038,0.00016028,0.00015962,0.00016036,0.0002404,0.0002388,0.0002394,0.0002366,0.000238,0.0002406,0.0002428,0.0002434,0.0002402,0.0002392
556,0.00017642,0.00017838,0.00017974,0.00017846,0.00017618,0.00017536,0.00017332,0.000176,0.00017586,0.0001743,0.0002068,0.0002082,0.0002088,0.000207,0.0002062,0.0002064,0.000207,0.0002082,0.0002084,0.0002056,0.00016126,0.00016116,0.0001611,0.00016128,0.00016208,0.0001612,0.0001612,0.00016098,0.00016008,0.00016138,0.000391,0.0003896,0.000389,0.000387,0.0003892,0.0004012,0.0004034,0.0004048,0.0004032,0.0004038
558,0.0001726,0.00017368,0.00017454,0.00017366,0.00017262,0.00017006,0.00016848,0.00017034,0.00017018,0.00016924,0.0002076,0.0002086,0.0002094,0.0002072,0.000207,0.0002062,0.0002072,0.000207,0.0002086,0.0002058,0.00016172,0.00016144,0.00016146,0.00016182,0.00016322,0.0001616,0.00016146,0.0001618,0.00016096,0.00016192,0.000739,0.0007384,0.0007384,0.000737,0.000737,0.0007632,0.0007668,0.0007706,0.0007682,0.000767
560,0.00016784,0.00016678,0.00016914,0.0001688,0.00016966,0.00016522,0.00016272,0.0001647,0.0001647,0.0001641,0.0002078,0.000209,0.0002096,0.0002072,0.0002068,0.0002062,0.000206,0.0002068,0.0002092,0.0002064,0.00016242,0.00016208,0.00016228,0.00016178,0.00016376,0.00016208,0.00016256,0.00016274,0.00016154,0.00016248,0.0013036,0.001306,0.001305,0.0012994,0.0013048,0.0013438,0.001348,0.0013564,0.0013482,0.001355
562,0.00016256,0.00016464,0.00016608,0.00016412,0.0001665,0.0001616,0.00015826,0.00016058,0.00016164,0.00016126,0.000208,0.0002096,0.00021,0.0002086,0.0002058,0.0002064,0.0002058,0.0002076,0.000209,0.0002068,0.00016294,0.0001631,0.00016302,0.00016206,0.00016364,0.00016252,0.00016276,0.0001632,0.00016222,0.00016324,0.00208,0.002086,0.002088,0.002072,0.002088,0.002136,0.00214,0.002154,0.00214,0.002158
564,0.00017016,0.00017012,0.00017076,0.00017084,0.00017348,0.00016774,0.000166,0.00016846,0.0001683,0.00016792,0.000208,0.0002082,0.0002096,0.000207,0.0002056,0.0002062,0.0002056,0.0002072,0.0002084,0.0002058,0.0001624,0.00016262,0.00016252,0.00016212,0.00016336,0.00016218,0.0001627,0.00016286,0.00016174,0.0001628,0.003204,0.003226,0.003234,0.003198,0.003228,0.003276,0.003284,0.003326,0.003288,0.003332
566,0.0002224,0.000224,0.0002266,0.0002236,0.0002266,0.0002284,0.000227,0.0002302,0.0002282,0.0002286,0.0002068,0.0002072,0.000209,0.0002058,0.0002066,0.000206,0.0002052,0.0002074,0.0002092,0.0002062,0.00016196,0.00016244,0.00016246,0.0001622,0.00016322,0.0001621,0.00016274,0.00016286,0.00016208,0.00016264,0.004446,0.004496,0.004516,0.004436,0.004506,0.004524,0.004534,0.004624,0.00454,0.004636
568,0.0004154,0.0004188,0.00042,0.0004168,0.0004212,0.000435,0.000434,0.0004384,0.0004348,0.0004382,0.0002068,0.000207,0.0002098,0.000206,0.0002068,0.0002052,0.0002052,0.000208,0.0002098,0.0002052,0.00016226,0.00016262,0.00016276,0.00016278,0.0001633,0.00016274,0.00016282,0.00016308,0.00016254,0.0001633,0.00573,0.005818,0.005854,0.005716,0.005838,0.005806,0.005812,0.00597,0.005822,0.005992
570,0.000839,0.000845,0.0008432,0.0008394,0.000849,0.0008746,0.0008748,0.0008784,0.000875,0.00088,0.0002062,0.0002064,0.0002084,0.000206,0.0002056,0.0002046,0.000205,0.0002072,0.0002086,0.0002052,0.0001616,0.00016258,0.0001617,0.00016194,0.00016258,0.0001621,0.0001621,0.00016268,0.00016202,0.00016278,0.007,0.00714,0.007196,0.006988,0.007168,0.007064,0.007068,0.007304,0.007082,0.007334
572,0.0015004,0.0015082,0.0015022,0.0014992,0.0015158,0.001548,0.001547,0.001552,0.0015492,0.0015554,0.0002056,0.0002074,0.000207,0.000207,0.0002062,0.000205,0.0002042,0.000208,0.0002084,0.0002064,0.00016068,0.00016152,0.00016136,0.00016128,0.0001623,0.00016134,0.00016138,0.00016216,0.0001617,0.0001625,0.008184,0.008378,0.008452,0.008172,0.008418,0.008226,0.00823,0.008538,0.008246,0.00858
574,0.002432,0.002442,0.002432,0.00243,0.002464,0.002488,0.00249,0.002498,0.002494,0.0025,0.0002094,0.0002106,0.000211,0.0002092,0.000209,0.0002078,0.000207,0.00021,0.0002124,0.0002098,0.000161,0.000161,0.00016156,0.00016094,0.00016176,0.0001614,0.00016098,0.00016204,0.00016162,0.00016258,0.009244,0.00948,0.009564,0.009232,0.00953,0.009256,0.009262,0.009632,0.009282,0.009676
576,0.00361,0.003624,0.00361,0.00361,0.003692,0.00368,0.00368,0.00369,0.003686,0.003694,0.0002174,0.0002196,0.0002198,0.0002188,0.0002174,0.0002174,0.0002174,0.0002204,0.0002218,0.0002192,0.00016126,0.00016216,0.00016046,0.0001615,0.00016174,0.00016212,0.00016178,0.0001624,0.000162,0.00016274,0.010106,0.010366,0.010446,0.010094,0.010416,0.010096,0.010102,0.010496,0.010126,0.010534
578,0.0048,0.004814,0.004796,0.004796,0.004948,0.00487,0.004872,0.004882,0.004878,0.004886,0.000234,0.0002368,0.0002354,0.0002358,0.0002358,0.0002374,0.0002358,0.0002386,0.0002404,0.0002378,0.00016482,0.0001652,0.00016434,0.00016436,0.00016476,0.00016586,0.00016602,0.00016598,0.00016686,0.00016666,0.01071,0.01096,0.011022,0.010698,0.011002,0.010688,0.01069,0.011054,0.010716,0.011084
580,0.005988,0.006002,0.00598,0.005982,0.006222,0.006052,0.006054,0.006064,0.006062,0.00607,0.0002652,0.0002668,0.0002658,0.0002664,0.0002666,0.0002698,0.0002676,0.000271,0.0002722,0.0002706,0.00017484,0.00017528,0.000174,0.00017442,0.00017498,0.0001766,0.00017636,0.00017736,0.00017772,0.00017766,0.011132,0.01132,0.01136,0.01112,0.011352,0.011096,0.011096,0.011362,0.01112,0.011378
582,0.00711,0.007126,0.007098,0.007104,0.007438,0.007154,0.00716,0.00717,0.00717,0.007176,0.0003198,0.000322,0.0003186,0.000321,0.000321,0.000327,0.0003246,0.0003278,0.0003288,0.0003278,0.00019536,0.00019606,0.000195,0.00019592,0.00019582,0.000198,0.0001984,0.00019924,0.00019934,0.00019976,0.011376,0.011468,0.011476,0.011364,0.011488,0.011322,0.011326,0.011454,0.01135,0.01146
584,0.008084,0.008102,0.00807,0.00808,0.008496,0.0081,0.00811,0.008122,0.008122,0.00813,0.000425,0.0004278,0.0004242,0.0004256,0.0004268,0.000437,0.0004354,0.0004396,0.00044,0.0004392,0.0002336,0.0002344,0.0002326,0.0002338,0.0002334,0.000237,0.000238,0.0002384,0.0002388,0.0002392,0.011474,0.011468,0.01145,0.011464,0.011476,0.011402,0.01141,0.011406,0.011432,0.01141
586,0.008868,0.008884,0.008852,0.008864,0.009272,0.00885,0.008856,0.008868,0.008872,0.008878,0.0006822,0.0006844,0.00068,0.0006818,0.0006826,0.0007,0.0007012,0.0007026,0.0007036,0.000705,0.000311,0.0003114,0.0003094,0.0003112,0.0003108,0.0003166,0.0003174,0.0003188,0.0003186,0.00032,0.01142,0.01133,0.0113,0.011412,0.011332,0.011326,0.011334,0.011226,0.011356,0.011226
588,0.009284,0.009296,0.009266,0.009278,0.009562,0.009228,0.009236,0.00925,0.009254,0.009258,0.0010558,0.0010586,0.0010536,0.0010558,0.0010556,0.0010762,0.0010762,0.0010802,0.0010806,0.0010834,0.0004234,0.000424,0.0004224,0.0004242,0.0004228,0.0004308,0.0004322,0.0004338,0.0004338,0.0004352,0.011286,0.011154,0.011114,0.011278,0.011156,0.011174,0.01118,0.011028,0.011204,0.011024
590,0.00939,0.009402,0.009376,0.009382,0.00945,0.009298,0.009302,0.00932,0.009322,0.009322,0.0014614,0.0014646,0.0014588,0.0014612,0.0014626,0.001473,0.0014728,0.001477,0.0014784,0.0014824,0.0005738,0.000574,0.0005724,0.000574,0.0005724,0.0005826,0.000584,0.0005856,0.000587,0.0005884,0.011064,0.01091,0.010866,0.011056,0.010908,0.010936,0.010944,0.010772,0.010974,0.01077
592,0.009068,0.00908,0.009056,0.009058,0.008874,0.008936,0.008936,0.008956,0.00896,0.008956,0.0017606,0.0017634,0.0017582,0.0017604,0.001763,0.0017592,0.0017602,0.0017644,0.0017658,0.0017696,0.000761,0.000761,0.0007592,0.0007606,0.0007598,0.0007726,0.000774,0.000776,0.0007776,0.0007802,0.010764,0.010608,0.010564,0.010756,0.010604,0.01063,0.010644,0.010474,0.01067,0.01047
594,0.00821,0.00822,0.008202,0.008202,0.00785,0.008046,0.008052,0.00807,0.008072,0.008064,0.0018972,0.0019008,0.001894,0.0018966,0.0019,0.0018876,0.0018892,0.0018918,0.0018924,0.001898,0.000987,0.0009878,0.000985,0.0009874,0.0009866,0.0010014,0.0010042,0.0010068,0.001008,0.0010112,0.010392,0.010244,0.0102,0.010386,0.010242,0.010268,0.010282,0.010124,0.01031,0.010124
596,0.00675,0.006756,0.006744,0.006744,0.00641,0.00659,0.006592,0.006604,0.00661,0.006594,0.0019074,0.001909,0.0019012,0.001908,0.0019096,0.0018936,0.0018926,0.0018976,0.001898,0.0019016,0.001271,0.0012716,0.0012688,0.0012714,0.0012694,0.0012862,0.00129,0.001292,0.001293,0.0012964,0.009916,0.009784,0.009744,0.00991,0.009786,0.00981,0.009822,0.00968,0.009844,0.009674
598,0.00527,0.00527,0.00526,0.005262,0.005048,0.00513,0.005132,0.005138,0.005142,0.00513,0.001851,0.001852,0.0018476,0.0018518,0.0018544,0.0018366,0.0018354,0.001839,0.0018402,0.0018434,0.0015504,0.0015504,0.0015476,0.0015508,0.0015486,0.0015662,0.0015704,0.0015718,0.001573,0.0015762,0.009456,0.009348,0.00931,0.00945,0.009354,0.009366,0.009374,0.009252,0.009392,0.009244
600,0.003918,0.003916,0.00391,0.003912,0.0038,0.003804,0.003806,0.003808,0.00381,0.0038,0.0017826,0.0017836,0.001778,0.0017834,0.0017852,0.0017704,0.0017688,0.001771,0.0017716,0.0017756,0.0018346,0.001834,0.0018322,0.0018352,0.0018326,0.0018492,0.001853,0.0018546,0.0018564,0.00186,0.009006,0.008914,0.008884,0.009002,0.008924,0.008926,0.008928,0.008824,0.008946,0.008816
602,0.00277,0.002768,0.002764,0.002766,0.002718,0.002682,0.002684,0.002684,0.002686,0.002678,0.0017756,0.0017774,0.0017704,0.001776,0.0017768,0.001773,0.0017724,0.0017732,0.0017734,0.0017784,0.002114,0.002114,0.002112,0.002114,0.002112,0.002126,0.00213,0.002132,0.002134,0.002138,0.008574,0.0085,0.008474,0.00857,0.008508,0.008498,0.008502,0.008418,0.008516,0.008408
604,0.0018534,0.0018496,0.001845,0.0018492,0.0018362,0.0017874,0.0017868,0.0017864,0.0017882,0.0017822,0.001959,0.001961,0.0019542,0.0019566,0.00196,0.0019784,0.001978,0.001978,0.0019764,0.001984,0.002378,0.002376,0.002376,0.002378,0.002376,0.002388,0.002392,0.002392,0.002396,0.002398,0.00816,0.0081,0.008076,0.008156,0.008112,0.008086,0.00809,0.008018,0.0081,0.008016
606,0.0010992,0.0010944,0.0010936,0.001095,0.0010946,0.0010542,0.0010526,0.0010532,0.0010542,0.0010496,0.002486,0.002492,0.002484,0.002486,0.002486,0.002532,0.002534,0.002534,0.002532,0.00254,0.002632,0.00263,0.00263,0.002632,0.00263,0.002638,0.002642,0.00264,0.002644,0.002648,0.007698,0.007642,0.007624,0.007686,0.007654,0.007622,0.007624,0.007564,0.007634,0.007562
608,0.0006568,0.0006534,0.0006554,0.0006554,0.0006554,0.0006332,0.0006346,0.0006318,0.0006338,0.00063,0.003294,0.003298,0.003288,0.003288,0.003292,0.003364,0.003368,0.003366,0.003364,0.003372,0.002808,0.002804,0.002804,0.002806,0.002804,0.002806,0.00281,0.002808,0.002812,0.002814,0.00719,0.007138,0.007124,0.007178,0.00715,0.007112,0.00711,0.007058,0.007118,0.007044
610,0.0004776,0.0004712,0.000473,0.0004742,0.0004788,0.0004636,0.0004662,0.0004644,0.0004646,0.0004638,0.004252,0.004258,0.004246,0.004246,0.00425,0.00434,0.004344,0.004342,0.004338,0.004348,0.002872,0.002868,0.00287,0.002872,0.00287,0.002862,0.002866,0.002864,0.002866,0.002868,0.006554,0.006502,0.006492,0.006544,0.00651,0.00647,0.006466,0.006406,0.006472,0.006394
612,0.0004174,0.000414,0.000415,0.000415,0.0004218,0.000409,0.0004094,0.0004104,0.0004104,0.00041,0.005276,0.005284,0.00527,0.00527,0.005274,0.005376,0.00538,0.005376,0.005374,0.005384,0.002808,0.002802,0.002806,0.002808,0.002806,0.002788,0.002792,0.002792,0.00279,0.00279,0.005768,0.005716,0.005706,0.00576,0.005726,0.00568,0.005676,0.00562,0.005678,0.005602
614,0.000401,0.0003954,0.0003992,0.0003994,0.0004074,0.0003948,0.000395,0.0003958,0.0003952,0.000395,0.006286,0.006296,0.006278,0.00628,0.006284,0.006388,0.006396,0.00639,0.006388,0.006396,0.00261,0.002606,0.00261,0.00261,0.002608,0.002582,0.002584,0.002584,0.002582,0.00258,0.004908,0.004868,0.004862,0.004902,0.00488,0.004826,0.004822,0.004776,0.00482,0.00476
616,0.000404,0.000397,0.0004024,0.0004026,0.0004074,0.000399,0.0003988,0.0003996,0.0003996,0.000401,0.007292,0.0073,0.00728,0.007284,0.007288,0.007386,0.007394,0.007386,0.007386,0.007392,0.002256,0.00225,0.002256,0.002256,0.002256,0.002218,0.00222,0.00222,0.002218,0.002214,0.003966,0.003938,0.00394,0.003962,0.003948,0.003888,0.003886,0.003854,0.003884,0.00384
618,0.000419,0.0004134,0.0004182,0.0004158,0.0004228,0.000414,0.0004146,0.000415,0.000416,0.000415,0.008094,0.008098,0.008078,0.008082,0.008088,0.008164,0.008172,0.008162,0.008162,0.00817,0.0018254,0.0018218,0.001826,0.0018276,0.0018262,0.0017834,0.0017838,0.0017828,0.0017812,0.001777,0.00308,0.00306,0.00306,0.003072,0.003072,0.003002,0.003,0.002986,0.003002,0.002976
620,0.000446,0.0004424,0.0004442,0.0004456,0.0004518,0.0004424,0.0004446,0.0004414,0.000447,0.0004446,0.008612,0.008612,0.008592,0.0086,0.008604,0.008658,0.008666,0.008654,0.008656,0.008664,0.0013848,0.001381,0.0013856,0.0013858,0.001386,0.0013426,0.0013426,0.0013418,0.0013404,0.0013362,0.002282,0.00227,0.002276,0.002278,0.00228,0.002214,0.002214,0.002202,0.002212,0.002192
622,0.0004942,0.0004896,0.0004914,0.000493,0.0005,0.0004926,0.0004946,0.0004918,0.0004962,0.0004956,0.00889,0.008892,0.008872,0.008878,0.008884,0.008918,0.008926,0.008918,0.008918,0.008924,0.0009612,0.0009574,0.0009616,0.000961,0.000962,0.0009248,0.000925,0.0009244,0.0009232,0.0009198,0.001563,0.0015522,0.00156,0.0015596,0.0015644,0.0015086,0.0015084,0.0014972,0.0015046,0.0014956
624,0.0005676,0.0005652,0.0005664,0.0005672,0.0005726,0.0005678,0.0005708,0.000571,0.000576,0.0005728,0.008948,0.008952,0.00893,0.008938,0.008942,0.008968,0.008972,0.008966,0.00897,0.00897,0.0006464,0.0006448,0.0006466,0.0006468,0.000647,0.0006274,0.000628,0.0006276,0.0006266,0.0006254,0.001018,0.0010082,0.0010196,0.0010154,0.001019,0.0009884,0.0009858,0.000979,0.0009836,0.0009786
626,0.0006826,0.00068,0.0006834,0.000684,0.000684,0.0006892,0.0006904,0.0006892,0.0006952,0.0006912,0.0088,0.008806,0.008788,0.00879,0.0088,0.00882,0.008822,0.00882,0.008822,0.008824,0.00059,0.0005892,0.0005902,0.0005902,0.0005908,0.0005994,0.0005998,0.0005996,0.0006002,0.0006008,0.0008182,0.0008154,0.0008234,0.0008132,0.000821,0.000822,0.000823,0.0008222,0.0008214,0.0008216
628,0.0008238,0.0008228,0.0008242,0.0008266,0.0008254,0.0008354,0.0008352,0.0008346,0.0008408,0.000837,0.008508,0.008516,0.008498,0.0085,0.00851,0.008536,0.008536,0.008536,0.008536,0.008534,0.0008314,0.0008316,0.0008318,0.000832,0.0008322,0.000861,0.000863,0.0008616,0.0008622,0.0008632,0.001023,0.0010188,0.0010288,0.0010176,0.0010236,0.0010472,0.001054,0.0010546,0.0010478,0.001052
630,0.000975,0.0009742,0.0009744,0.0009756,0.000978,0.0009902,0.00099,0.0009892,0.0009966,0.000991,0.008158,0.008164,0.00815,0.00815,0.008162,0.008194,0.00819,0.008188,0.008188,0.00818,0.0012034,0.001204,0.0012038,0.001204,0.0012034,0.001244,0.0012454,0.0012426,0.0012432,0.0012444,0.0014038,0.0014018,0.0014122,0.0013982,0.001411,0.0014408,0.0014438,0.0014432,0.0014396,0.0014482
632,0.0011268,0.0011262,0.001124,0.0011276,0.0011314,0.001146,0.0011462,0.0011438,0.001151,0.0011446,0.00777,0.007778,0.007762,0.007762,0.007774,0.00781,0.007804,0.007796,0.007796,0.007784,0.0016146,0.0016148,0.0016136,0.0016144,0.0016142,0.0016608,0.0016612,0.0016572,0.001658,0.001659,0.0018334,0.0018314,0.001841,0.0018282,0.0018436,0.0018776,0.0018794,0.0018822,0.0018742,0.0018802
634,0.0012798,0.001279,0.0012778,0.0012828,0.001281,0.0013036,0.0013022,0.0013032,0.0013058,0.0013,0.007368,0.007378,0.007362,0.007364,0.007374,0.007408,0.007402,0.007392,0.007388,0.00738,0.00203,0.00203,0.002028,0.00203,0.00203,0.00208,0.002082,0.002076,0.002076,0.002078,0.002268,0.002272,0.002278,0.002264,0.002282,0.00232,0.002316,0.00232,0.002314,0.00232
636,0.001447,0.0014456,0.0014434,0.0014462,0.0014482,0.0014742,0.0014718,0.0014688,0.0014748,0.0014678,0.006932,0.00694,0.006926,0.006926,0.006936,0.006968,0.00696,0.006948,0.006948,0.006936,0.002478,0.002478,0.002476,0.002478,0.002478,0.002532,0.002532,0.002526,0.002526,0.002528,0.002748,0.002746,0.002758,0.002738,0.002754,0.0028,0.0028,0.002804,0.00279,0.002798
638,0.0015902,0.001594,0.0015884,0.0015936,0.001591,0.0016202,0.0016184,0.0016154,0.0016214,0.0016152,0.006554,0.006556,0.006546,0.006548,0.006558,0.006586,0.006574,0.006564,0.006564,0.006554,0.002874,0.002874,0.002872,0.002874,0.002874,0.00293,0.00293,0.002922,0.002922,0.002924,0.003172,0.00317,0.00318,0.003164,0.003178,0.003226,0.003224,0.003226,0.003214,0.003222
640,0.0017258,0.0017314,0.0017268,0.0017292,0.0017306,0.0017574,0.0017568,0.0017548,0.00176,0.001754,0.006226,0.00623,0.006218,0.00622,0.006228,0.006252,0.006242,0.006232,0.006232,0.006226,0.003218,0.003218,0.003218,0.003218,0.003218,0.00327,0.00327,0.003262,0.003262,0.003264,0.003528,0.003526,0.00353,0.00352,0.003536,0.003578,0.003572,0.003576,0.003562,0.003568
642,0.001863,0.0018666,0.0018606,0.001862,0.0018688,0.001891,0.0018914,0.0018886,0.0018934,0.0018862,0.005932,0.005938,0.005928,0.005926,0.005934,0.005952,0.005946,0.005934,0.005936,0.00593,0.003488,0.003486,0.003488,0.003488,0.003488,0.003532,0.00353,0.003522,0.003522,0.003524,0.00377,0.003768,0.003772,0.003762,0.003782,0.003804,0.003798,0.003802,0.003792,0.003792
644,0.0019938,0.001997,0.0019914,0.0019934,0.0019932,0.002018,0.002018,0.002018,0.002022,0.002014,0.005684,0.005692,0.005676,0.005678,0.005684,0.005698,0.005692,0.005684,0.005686,0.00568,0.003662,0.003662,0.003662,0.003664,0.003662,0.003696,0.003696,0.003688,0.003686,0.003688,0.003866,0.003862,0.003868,0.00386,0.003872,0.00389,0.003882,0.003886,0.00388,0.00387
646,0.002142,0.002144,0.002136,0.00214,0.002136,0.002164,0.002164,0.002166,0.002168,0.002162,0.005442,0.005448,0.005436,0.00544,0.005442,0.005448,0.005446,0.005444,0.005446,0.00544,0.003742,0.00374,0.003742,0.003744,0.003744,0.003766,0.003766,0.00376,0.003756,0.003758,0.003866,0.003858,0.003864,0.00386,0.003872,0.003878,0.00387,0.003876,0.00387,0.003862
648,0.002272,0.002274,0.002262,0.002268,0.002268,0.002286,0.00229,0.00229,0.002292,0.002286,0.005252,0.005262,0.00525,0.005252,0.005254,0.005256,0.005254,0.005254,0.005254,0.005248,0.003754,0.003754,0.003754,0.003756,0.003756,0.003772,0.003774,0.003768,0.003764,0.003766,0.003836,0.003828,0.00383,0.003832,0.00384,0.003846,0.003836,0.003842,0.003836,0.003828
650,0.002368,0.002372,0.002362,0.002362,0.00236,0.002384,0.002384,0.002384,0.002384,0.002378,0.005052,0.005056,0.005046,0.005046,0.00505,0.005046,0.005042,0.005044,0.005044,0.00504,0.00372,0.00372,0.00372,0.003722,0.003722,0.003732,0.003732,0.003728,0.003722,0.003726,0.00377,0.003764,0.003766,0.003764,0.003776,0.00378,0.003768,0.003772,0.003764,0.003756
652,0.002428,0.002436,0.002422,0.002426,0.002426,0.002442,0.002442,0.002442,0.002444,0.002434,0.0048,0.004804,0.004794,0.004796,0.0048,0.004792,0.004788,0.00479,0.00479,0.004786,0.003618,0.00362,0.00362,0.003622,0.00362,0.003622,0.003622,0.00362,0.003614,0.003618,0.003638,0.003638,0.003638,0.003638,0.003648,0.003644,0.003632,0.003632,0.003632,0.003624
654,0.00247,0.002478,0.002466,0.002468,0.002472,0.002478,0.002478,0.00248,0.00248,0.002474,0.004536,0.004544,0.004532,0.004534,0.004538,0.004528,0.004526,0.004524,0.00453,0.004528,0.003438,0.00344,0.00344,0.003442,0.00344,0.003432,0.003432,0.00343,0.003426,0.00343,0.003434,0.003424,0.003428,0.00343,0.003432,0.003426,0.003414,0.003424,0.003418,0.003416
656,0.002508,0.002516,0.002504,0.002504,0.002506,0.002512,0.002514,0.00252,0.002516,0.002514,0.004284,0.004286,0.004276,0.00428,0.00428,0.004276,0.004274,0.004276,0.004282,0.004278,0.003114,0.003114,0.003116,0.003118,0.003118,0.003096,0.003098,0.003098,0.003096,0.0031,0.003084,0.003078,0.00307,0.00308,0.003082,0.003072,0.00306,0.003062,0.003064,0.003058
658,0.00255,0.002554,0.00254,0.002544,0.002548,0.00255,0.002552,0.002558,0.002554,0.002554,0.004094,0.004094,0.004084,0.004094,0.004094,0.004088,0.00409,0.004092,0.0041,0.004098,0.002732,0.002732,0.002734,0.002736,0.002734,0.002712,0.002712,0.002714,0.00271,0.002714,0.002696,0.002696,0.002684,0.002696,0.002694,0.002684,0.002674,0.002678,0.002682,0.002672
660,0.002586,0.002588,0.00258,0.00258,0.002582,0.002586,0.002586,0.002594,0.002588,0.002588,0.003936,0.003938,0.003928,0.003934,0.003936,0.003934,0.003936,0.003938,0.003946,0.003946,0.002314,0.002314,0.002316,0.002316,0.002316,0.002294,0.002296,0.002298,0.002294,0.002298,0.002292,0.002288,0.002278,0.002292,0.002292,0.002282,0.002266,0.002278,0.002278,0.002268
662,0.002612,0.002618,0.002606,0.002606,0.002606,0.002608,0.002604,0.002616,0.002608,0.002612,0.003794,0.003796,0.003784,0.003792,0.003794,0.003792,0.003788,0.003792,0.003802,0.0038,0.00189,0.0018904,0.0018916,0.0018922,0.001892,0.0018714,0.0018712,0.0018728,0.0018708,0.0018718,0.0018884,0.0018816,0.0018732,0.0018868,0.0018792,0.0018772,0.0018598,0.0018704,0.0018744,0.001863
664,0.002608,0.00261,0.0026,0.002602,0.002602,0.002596,0.002592,0.002604,0.002598,0.002594,0.003632,0.003634,0.003626,0.003628,0.003628,0.003618,0.003616,0.003622,0.003628,0.003628,0.0014476,0.0014492,0.0014502,0.0014496,0.0014486,0.0014282,0.0014284,0.0014304,0.001427,0.001426,0.0014644,0.0014572,0.0014472,0.0014626,0.0014542,0.0014486,0.0014368,0.0014416,0.0014424,0.0014336
666,0.002516,0.002514,0.002504,0.002506,0.002512,0.002488,0.002482,0.002494,0.002486,0.002482,0.003388,0.003388,0.00338,0.003386,0.003386,0.00336,0.003356,0.00336,0.003366,0.003364,0.001018,0.001019,0.00102,0.0010214,0.001019,0.0009984,0.0009974,0.0009994,0.0009968,0.0009952,0.0010486,0.001035,0.0010312,0.0010438,0.0010386,0.001031,0.0010194,0.001027,0.0010208,0.0010192
668,0.002318,0.002318,0.002306,0.002312,0.002314,0.00228,0.002274,0.002284,0.002278,0.002274,0.003058,0.003058,0.003052,0.003056,0.00306,0.003018,0.003012,0.003016,0.003018,0.003018,0.0006614,0.000662,0.0006644,0.0006634,0.0006612,0.000642,0.0006398,0.0006414,0.0006398,0.0006372,0.0006942,0.0006946,0.0006844,0.0006966,0.0006864,0.0006756,0.0006672,0.0006728,0.0006662,0.0006654
670,0.002054,0.002052,0.002046,0.00205,0.00205,0.002012,0.002004,0.002014,0.002004,0.002002,0.002666,0.002666,0.00266,0.002664,0.002668,0.002618,0.00261,0.002616,0.002616,0.002614,0.0003864,0.0003884,0.0003894,0.0003886,0.0003864,0.0003726,0.0003702,0.0003724,0.0003694,0.0003686,0.0004234,0.0004266,0.0004116,0.0004282,0.0004182,0.0004116,0.0004042,0.0004088,0.0004046,0.0004006
672,0.0017562,0.0017544,0.0017484,0.0017526,0.001753,0.0017112,0.0017024,0.001712,0.0017008,0.0016974,0.002248,0.002248,0.002242,0.00225,0.002252,0.0022,0.00219,0.002192,0.002196,0.002194,0.0002316,0.0002332,0.0002312,0.0002324,0.0002302,0.0002228,0.0002194,0.000223,0.0002208,0.0002204,0.000271,0.00027,0.0002582,0.0002694,0.0002632,0.000264,0.0002558,0.000259,0.0002554,0.0002566
674,0.0014046,0.0013998,0.0013942,0.001399,0.0014022,0.0013582,0.0013514,0.0013574,0.0013434,0.0013456,0.0017784,0.0017776,0.0017744,0.001782,0.0017844,0.0017322,0.0017188,0.0017222,0.0017238,0.0017194,0.00016656,0.00016868,0.00016786,0.00016818,0.00016464,0.000163,0.00015892,0.00016268,0.00016152,0.0001601,0.000208,0.0002082,0.00019674,0.000213,0.000208,0.0002056,0.0002002,0.00019938,0.00019684,0.0001937
676,0.0010776,0.0010728,0.0010674,0.0010734,0.0010764,0.0010386,0.001027,0.0010332,0.0010218,0.0010228,0.0013566,0.0013548,0.001354,0.0013588,0.0013626,0.00131,0.001302,0.0013034,0.0013034,0.001302,0.000148,0.00015094,0.00014968,0.00014926,0.0001474,0.00014536,0.00014254,0.00014582,0.00014432,0.00014346,0.00019196,0.00018566,0.00018146,0.0001953,0.00018314,0.00019174,0.0001832,0.00018478,0.00018106,0.00017698
678,0.0007678,0.0007682,0.000762,0.000768,0.00077,0.0007326,0.000723,0.0007324,0.0007212,0.0007248,0.0009706,0.0009694,0.0009686,0.0009736,0.0009772,0.000932,0.000925,0.0009278,0.0009264,0.0009276,0.00014168,0.00014272,0.0001426,0.00014048,0.00013924,0.000138,0.00013686,0.00013778,0.00013628,0.00013518,0.00018654,0.00017908,0.00016822,0.0001879,0.0001736,0.00018336,0.00017578,0.0001791,0.0001736,0.00017578
680,0.0004946,0.000492,0.0004936,0.0004978,0.0004966,0.0004712,0.0004618,0.000467,0.0004596,0.0004622,0.0006352,0.0006346,0.000636,0.0006386,0.0006402,0.0006062,0.0005998,0.000605,0.0006018,0.0006032,0.00013724,0.00013844,0.00013718,0.00013726,0.00013562,0.0001336,0.00013128,0.0001348,0.00013276,0.00012956,0.00018348,0.00018026,0.0001698,0.00018334,0.0001779,0.0001756,0.00017008,0.00017956,0.000169,0.00017094
682,0.0003018,0.0002936,0.0002972,0.0003012,0.0003052,0.0002868,0.000277,0.0002806,0.0002724,0.000277,0.0003936,0.0003924,0.000394,0.000397,0.0004014,0.000377,0.0003744,0.0003782,0.0003736,0.000373,0.00013532,0.0001362,0.00013554,0.00013572,0.0001342,0.00013206,0.0001316,0.00013256,0.00013174,0.00012874,0.0001832,0.00017336,0.00016442,0.00018596,0.00017404,0.00017606,0.00017366,0.0001835,0.00017138,0.0001771
684,0.0002078,0.0001988,0.0002034,0.0002026,0.0002088,0.0001998,0.0001907,0.00019784,0.00018926,0.00019162,0.0002696,0.0002704,0.000271,0.0002764,0.0002776,0.0002672,0.0002634,0.0002676,0.0002632,0.00026,0.00013484,0.0001343,0.00013306,0.0001342,0.0001315,0.00012992,0.00012884,0.0001304,0.000131,0.00012794,0.00017962,0.0001735,0.00017294,0.00018432,0.00018268,0.00017758,0.00017666,0.00017668,0.00016242,0.0001695
686,0.00017732,0.00016954,0.00017552,0.000177,0.00018572,0.00017538,0.00016858,0.00017228,0.00016966,0.0001684,0.0002284,0.0002294,0.0002322,0.0002338,0.0002376,0.0002282,0.0002256,0.0002284,0.0002258,0.0002232,0.00012806,0.00012896,0.0001279,0.00012892,0.00012592,0.00012546,0.0001246,0.00012638,0.00012484,0.00012212,0.00017322,0.00016716,0.00016528,0.00017694,0.00017332,0.00017556,0.00017124,0.0001761,0.00016224,0.00016888
688,0.00016332,0.0001587,0.00016488,0.00016664,0.00016472,0.00016358,0.0001562,0.0001628,0.00015248,0.0001588,0.0002094,0.000209,0.0002124,0.0002154,0.0002166,0.0002114,0.0002058,0.00021,0.0002056,0.0002064,0.00012288,0.00012266,0.00012168,0.00012286,0.00012024,0.0001194,0.00011966,0.00012064,0.00011978,0.00011634,0.00016644,0.00015802,0.0001631,0.00016506,0.00016492,0.00017402,0.00016696,0.00017028,0.00016026,0.00016776
690,0.00015292,0.00014904,0.00015272,0.00015486,0.00015726,0.0001591,0.00014958,0.00015086,0.00014866,0.0001509,0.00019124,0.00019468,0.0002008,0.0002036,0.0002026,0.00019642,0.00019434,0.00019766,0.0001917,0.00019094,0.00011726,0.00011596,0.00011708,0.00011718,0.0001137,0.0001144,0.00011472,0.00011496,0.00011272,0.00010974,0.00016168,0.00015784,0.00015698,0.00016402,0.00016574,0.00016722,0.00016124,0.00016334,0.0001564,0.0001679
692,0.0001476,0.0001398,0.00014778,0.00014342,0.00015008,0.00015002,0.0001393,0.00013978,0.00013936,0.00014286,0.00017804,0.0001808,0.00017972,0.00018562,0.00018606,0.00018354,0.00017548,0.00018364,0.00017534,0.00017414,0.0001093,0.00010932,0.00010832,0.00010816,0.0001056,0.00010546,0.0001074,0.00010728,0.0001083,0.00010462,0.00015266,0.00015216,0.00015082,0.0001591,0.00015778,0.00016176,0.00015854,0.00016806,0.00014972,0.00016302
694,0.00013894,0.0001316,0.0001376,0.00013354,0.0001371,0.00014174,0.00013266,0.00013098,0.0001336,0.00013166,0.00016684,0.0001682,0.00016588,0.00016786,0.00017314,0.00016748,0.0001645,0.00016808,0.00016318,0.00016056,0.00010042,0.00010106,0.000101,0.00010098,9.918e-05,9.768e-05,0.00010074,9.874e-05,0.00010128,9.68e-05,0.0001532,0.00014218,0.00014554,0.00015648,0.00014714,0.00015588,0.00014844,0.00014606,0.00014082,0.00014832
696,0.00012722,0.00012174,0.00012914,0.00012498,0.000129,0.00013466,0.00012696,0.00012192,0.000125,0.0001256,0.00015186,0.00015604,0.00015472,0.00015536,0.00016,0.00015852,0.00015314,0.00015864,0.00015432,0.00015138,9.372e-05,9.398e-05,9.492e-05,9.322e-05,9.242e-05,9.24e-05,9.508e-05,9.28e-05,9.504e-05,8.984e-05,0.00014438,0.00014326,0.00014868,0.00014662,0.00014176,0.00014408,0.00014332,0.00014808,0.00013612,0.00014404
698,0.000117,0.00011404,0.00012386,0.00011654,0.00012548,0.00012572,0.00011778,0.00011822,0.0001233,0.0001235,0.0001411,0.00014448,0.00014718,0.00014606,0.00015082,0.00014706,0.00014334,0.00014956,0.00014008,0.00014388,8.838e-05,8.808e-05,9.024e-05,8.656e-05,8.63e-05,8.708e-05,8.916e-05,8.752e-05,8.964e-05,8.416e-05,0.00013784,0.00012934,0.00014354,0.00014226,0.00015016,0.00014216,0.00014124,0.00014942,0.00012846,0.00014616
700,0.00011106,0.00010558,0.00012152,0.00011608,0.00011584,0.00012122,0.00011254,0.00011126,0.00012076,0.00011364,0.00013416,0.0001368,0.00013546,0.00014076,0.00013914,0.0001373,0.0001403,0.00014122,0.00012814,0.00013222,8.27e-05,8.004e-05,8.34e-05,8.166e-05,8.184e-05,8.176e-05,8.338e-05,8.164e-05,8.452e-05,7.976e-05,0.00012842,0.00012428,0.0001455,0.00013414,0.00014212,0.00013624,0.00014148,0.0001372,0.0001293,0.00013484
702,9.912e-05,0.00010216,0.0001132,0.00011072,0.00011302,0.00011728,0.00010966,0.00010578,0.0001166,0.00011492,0.00012684,0.00012518,0.00012576,0.00013066,0.00012578,0.00012862,0.00012766,0.00012812,0.00012222,0.00012358,7.882e-05,7.54e-05,7.662e-05,7.56e-05,7.742e-05,7.472e-05,8.082e-05,7.77e-05,7.91e-05,7.594e-05,0.00012212,0.00012456,0.0001346,0.00012554,0.00013336,0.00013196,0.00013638,0.00013148,0.0001285,0.00013196
704,9.866e-05,9.646e-05,0.00010556,0.00010414,0.0001121,0.00011368,0.00010652,0.00010606,0.00011084,0.00010866,0.00011948,0.00012054,0.00012176,0.00012376,0.0001218,0.00012556,0.00012352,0.00012582,0.00011672,0.00012376,7.36e-05,7.112e-05,7.24e-05,7.138e-05,7.316e-05,7.282e-05,7.684e-05,7.138e-05,7.464e-05,7.084e-05,0.00012204,0.00011958,0.0001426,0.0001207,0.00013976,0.00012792,0.0001355,0.00013154,0.00012794,0.00012322
706,9.404e-05,9.646e-05,0.00010172,9.922e-05,0.00010942,0.0001096,0.00010272,0.00010278,0.00011026,0.00010744,0.00011614,0.00011926,0.00011574,0.00011898,0.00011616,0.00012204,0.0001191,0.00012028,0.00011336,0.00012098,6.872e-05,6.748e-05,6.912e-05,6.906e-05,6.844e-05,7.188e-05,7.22e-05,6.9e-05,7.15e-05,6.762e-05,0.00012198,0.00011072,0.00014448,0.00012074,0.0001426,0.00012684,0.00012834,0.00012064,0.00012686,0.00012128
708,8.772e-05,9.004e-05,9.914e-05,9.868e-05,0.00011008,0.0001049,0.00010224,0.00010232,0.00011426,0.00010266,0.00011006,0.00011718,0.00011328,0.00011684,0.00011396,0.00012,0.00011588,0.0001225,0.00010894,0.0001143,6.588e-05,6.426e-05,6.72e-05,6.604e-05,6.598e-05,6.718e-05,6.954e-05,6.652e-05,6.762e-05,6.55e-05,0.00011256,0.00010708,0.00014204,0.00011452,0.00014238,0.00013224,0.00012606,0.00011842,0.00012844,0.00012092
710,9.252e-05,8.916e-05,9.864e-05,9.32e-05,0.0001004,9.872e-05,0.00010044,9.36e-05,0.00010844,9.538e-05,0.0001095,0.00012124,0.00010842,0.00011494,0.00010906,0.00011734,0.00011188,0.0001192,0.0001067,0.0001145,6.27e-05,6.302e-05,6.4e-05,6.51e-05,6.546e-05,6.454e-05,6.834e-05,6.17e-05,6.744e-05,6.586e-05,0.00011262,0.0001157,0.00014536,0.00010876,0.00013722,0.00012808,0.0001235,0.00012088,0.00012546,0.00011718
712,8.782e-05,8.956e-05,9.846e-05,9.22e-05,9.506e-05,9.638e-05,8.966e-05,9.082e-05,0.00011208,0.00010024,0.00010588,0.000114,0.00010858,0.0001088,0.000107,0.00011102,0.00011018,0.00010988,0.0001073,0.00011442,6.304e-05,5.886e-05,6.148e-05,6.068e-05,6.336e-05,6.382e-05,6.658e-05,6.14e-05,6.364e-05,6.536e-05,0.00011416,0.00010382,0.00014208,0.00010706,0.00012874,0.00012624,0.00012032,0.0001233,0.00012248,0.00011446
714,8.188e-05,8.28e-05,9.198e-05,8.294e-05,9.652e-05,9.582e-05,9.024e-05,9.484e-05,0.0001071,9.49e-05,0.0001036,0.00011246,0.00010572,0.00010498,0.00010486,0.00011242,0.0001123,0.00010856,0.00010602,0.00011568,6.036e-05,5.768e-05,5.98e-05,5.812e-05,6.086e-05,6.082e-05,6.372e-05,6.01e-05,6.284e-05,6.218e-05,0.00010764,0.00010014,0.00013808,9.912e-05,0.00012744,0.00012342,0.00011882,0.00011912,0.00011944,0.00011482
716,7.576e-05,8.044e-05,8.712e-05,8.128e-05,9.186e-05,8.882e-05,8.932e-05,9.104e-05,0.00010548,9.154e-05,0.0001019,0.00010992,9.748e-05,0.000105,9.972e-05,0.00011136,0.00010406,0.00010702,0.00010128,0.00011912,5.626e-05,5.582e-05,5.816e-05,5.57e-05,5.686e-05,5.948e-05,6.138e-05,5.55e-05,5.836e-05,5.912e-05,0.00011008,9.558e-05,0.00013276,9.666e-05,0.00012132,0.00011738,0.00011522,0.0001133,0.00011668,0.00010428
718,6.854e-05,7.844e-05,7.864e-05,7.514e-05,8.456e-05,8.158e-05,8.228e-05,8.646e-05,9.458e-05,8.59e-05,9.288e-05,0.00010722,9.37e-05,9.762e-05,9.66e-05,0.00010378,0.00010314,0.00010006,9.368e-05,0.00010684,5.13e-05,5.106e-05,5.2e-05,5.17e-05,5.448e-05,5.574e-05,5.78e-05,5.192e-05,5.53e-05,5.648e-05,0.00010464,9.946e-05,0.00012782,8.932e-05,0.00011854,0.00011706,0.00011226,0.00010648,0.00011244,9.85e-05
720,6.156e-05,6.52e-05,6.672e-05,7.268e-05,8.48e-05,7.516e-05,7.858e-05,8.122e-05,8.692e-05,8.5e-05,9.384e-05,0.00010194,9.104e-05,9.378e-05,9.032e-05,9.872e-05,0.0001024,9.89e-05,9.442e-05,0.00010204,4.83e-05,4.682e-05,4.786e-05,4.91e-05,5.134e-05,5.288e-05,5.354e-05,5.09e-05,4.924e-05,5.474e-05,0.00010094,9.136e-05,0.00012142,8.228e-05,0.00011804,0.00012014,0.0001111,9.96e-05,0.00010692,0.0001042
722,5.632e-05,6.314e-05,7.008e-05,6.636e-05,7.494e-05,7.09e-05,6.604e-05,8.034e-05,8.532e-05,7.474e-05,9.088e-05,9.766e-05,8.68e-05,8.896e-05,8.606e-05,9.742e-05,9.806e-05,9.196e-05,9.64e-05,0.00010044,4.57e-05,4.61e-05,4.482e-05,4.664e-05,5.018e-05,5.218e-05,5.22e-05,4.768e-05,4.83e-05,5.206e-05,9.902e-05,9.534e-05,0.0001195,8.31e-05,0.00011092,0.00011812,0.00010098,0.00010112,0.00010828,9.654e-05
724,5.662e-05,6.546e-05,6.098e-05,6.48e-05,6.932e-05,6.73e-05,5.998e-05,7.664e-05,7.854e-05,6.904e-05,8.38e-05,9.062e-05,8.458e-05,8.356e-05,8.21e-05,9.676e-05,9.188e-05,8.876e-05,9.192e-05,9.826e-05,4.51e-05,4.5e-05,4.404e-05,4.486e-05,4.83e-05,4.946e-05,5.03e-05,4.692e-05,4.766e-05,5.244e-05,9.246e-05,9.49e-05,0.0001202,7.698e-05,9.854e-05,0.00011552,9.548e-05,0.00010022,0.00010582,8.144e-05
726,5.74e-05,5.822e-05,5.248e-05,6.48e-05,5.35e-05,6.566e-05,6.146e-05,7.428e-05,7.242e-05,6.886e-05,7.902e-05,8.572e-05,7.75e-05,8.284e-05,7.562e-05,9.61e-05,9.772e-05,8.582e-05,8.444e-05,9.85e-05,4.282e-05,4.5e-05,4.202e-05,4.292e-05,4.936e-05,4.88e-05,4.86e-05,4.892e-05,4.558e-05,5.368e-05,8.958e-05,8.378e-05,0.00010844,6.668e-05,9.994e-05,0.00010154,0.00010762,9.72e-05,9.87e-05,8.37e-05
728,5.078e-05,6.228e-05,5.134e-05,6.128e-05,5.87e-05,6.11e-05,5.36e-05,7.156e-05,7.004e-05,5.596e-05,8.09e-05,9.314e-05,7.954e-05,8.528e-05,8.166e-05,9.194e-05,9.422e-05,8.796e-05,9.044e-05,9.282e-05,4.412e-05,4.282e-05,4.076e-05,4.376e-05,4.724e-05,5.138e-05,4.696e-05,4.654e-05,4.524e-05,5.214e-05,8.796e-05,8.506e-05,9.298e-05,6.846e-05,8.216e-05,0.00010226,0.00010292,8.544e-05,9.648e-05,6.728e-05
730,4.65e-05,5.854e-05,4.628e-05,5.836e-05,6.268e-05,6.16e-05,5.674e-05,7.056e-05,6.93e-05,5.822e-05,8.232e-05,8.818e-05,7.984e-05,8.118e-05,7.468e-05,9.37e-05,9.232e-05,8.55e-05,9.29e-05,9.158e-05,4.476e-05,4.512e-05,4.236e-05,4.47e-05,4.798e-05,5.122e-05,4.796e-05,4.564e-05,4.55e-05,5.382e-05,9.356e-05,9.982e-05,9.072e-05,7.544e-05,7.438e-05,0.00010072,9.718e-05,9.112e-05,9.708e-05,7.15e-05
732,3.516e-05,6.122e-05,4.928e-05,5.872e-05,4.686e-05,5.69e-05,5.262e-05,6.692e-05,6.104e-05,6.01e-05,8.142e-05,8.75e-05,7.89e-05,8.324e-05,7.412e-05,9.08e-05,9.296e-05,8.652e-05,9.116e-05,9.1e-05,4.358e-05,4.73e-05,4.18e-05,4.496e-05,4.762e-05,5.078e-05,4.6e-05,4.572e-05,4.696e-05,5.556e-05,8.054e-05,9.71e-05,9.366e-05,7.506e-05,7.43e-05,9.28e-05,9.566e-05,0.00010682,9.178e-05,7.998e-05
734,3.668e-05,5.862e-05,5.506e-05,5.562e-05,4.988e-05,4.858e-05,4.256e-05,6.336e-05,6.404e-05,5.45e-05,7.562e-05,8.748e-05,7.498e-05,8.076e-05,6.778e-05,8.776e-05,8.832e-05,8.412e-05,9.626e-05,8.478e-05,4.238e-05,4.42e-05,3.834e-05,4.386e-05,4.906e-05,4.944e-05,4.212e-05,4.598e-05,4.442e-05,5.106e-05,8.452e-05,0.00010126,8.402e-05,8.466e-05,6.05e-05,8.172e-05,0.00010274,8.932e-05,9.548e-05,8.898e-05
736,3.272e-05,4.164e-05,3.988e-05,4.824e-05,3.866e-05,5.014e-05,3.596e-05,5.976e-05,4.53e-05,4.192e-05,6.754e-05,8.036e-05,7.266e-05,7.264e-05,6.66e-05,7.888e-05,8.526e-05,7.298e-05,8.348e-05,7.998e-05,3.884e-05,3.974e-05,3.612e-05,4.028e-05,4.278e-05,4.4e-05,4.128e-05,4.444e-05,3.924e-05,4.744e-05,7.528e-05,8.01e-05,6.722e-05,7.164e-05,4.384e-05,7.064e-05,8.16e-05,7.966e-05,7.382e-05,7.536e-05
738,2.954e-05,4.132e-05,3.932e-05,4.44e-05,1.5586e-05,2.804e-05,3.212e-05,5.596e-05,4.284e-05,3.426e-05,6.224e-05,7.188e-05,6.582e-05,7.252e-05,6.506e-05,7.54e-05,7.13e-05,6.486e-05,7.696e-05,6.89e-05,3.766e-05,3.616e-05,3.028e-05,3.526e-05,4.12e-05,4.12e-05,3.646e-05,3.888e-05,3.62e-05,4.224e-05,7.078e-05,7.36e-05,6.626e-05,5.592e-05,3.274e-05,6.44e-05,8.074e-05,6.106e-05,6.288e-05,7.454e-05
740,1.9344e-05,3.492e-05,2.68e-05,3.818e-05,1.238e-05,2.274e-05,2.652e-05,4.93e-05,3.466e-05,3.248e-05,5.936e-05,6.428e-05,6.14e-05,6.448e-05,6.19e-05,7.058e-05,6.538e-05,5.794e-05,7.328e-05,6.326e-05,3.472e-05,3.454e-05,3.006e-05,3.144e-05,3.43e-05,3.698e-05,2.932e-05,3.372e-05,2.984e-05,3.956e-05,5.34e-05,6.314e-05,4.798e-05,5.836e-05,2.79e-05,4.634e-05,7.294e-05,5.284e-05,6.058e-05,7.152e-05
742,2.758e-05,3.346e-05,2.488e-05,2.976e-05,4.284e-06,2.258e-05,2.522e-05,3.698e-05,2.544e-05,1.576e-05,5.866e-05,6.322e-05,5.482e-05,5.942e-05,6.144e-05,6.26e-05,6.77e-05,5.674e-05,6.818e-05,6.124e-05,2.884e-05,2.922e-05,2.688e-05,3.026e-05,3.284e-05,3.216e-05,2.846e-05,3.262e-05,2.874e-05,3.67e-05,4.518e-05,5.56e-05,2.35e-05,6.162e-05,9.168e-06,3.814e-05,6.172e-05,4.79e-05,5.268e-05,7.422e-05
744,5.504e-06,3.098e-05,1.6238e-05,2.87e-05,1.5514e-05,1.2928e-05,2.518e-05,4.242e-05,1.6492e-05,1.1426e-05,5.056e-05,5.286e-05,5.762e-05,6.356e-05,5.616e-05,5.938e-05,6.088e-05,5.734e-05,6.796e-05,5.176e-05,2.674e-05,2.884e-05,2.14e-05,2.76e-05,2.782e-05,3.208e-05,2.486e-05,2.97e-05,2.25e-05,3.154e-05,5.17e-05,5.094e-05,3.61e-05,6.112e-05,5.06e-07,4.9e-05,7.656e-05,3.79e-05,3.914e-05,4.832e-05
746,7.554e-06,2.478e-05,8.35e-06,2.874e-05,7.144e-06,4.6e-06,1.5752e-05,3.4e-05,1.2898e-05,1.0668e-05,4.842e-05,4.744e-05,5.752e-05,5.572e-05,5.176e-05,5.63e-05,5.302e-05,5.558e-05,5.628e-05,4.9e-05,2.498e-05,2.726e-05,1.93e-05,2.22e-05,2.856e-05,2.946e-05,1.6486e-05,2.628e-05,2.122e-05,3.094e-05,4.214e-05,4.728e-05,2.182e-05,6.04e-05,1.8846e-06,4.036e-05,6.134e-05,3.186e-05,3.218e-05,7.932e-05
748,1.29e-05,2.84e-05,2.484e-05,3.018e-05,0,1.5266e-05,2.046e-05,2.464e-05,3.436e-06,4.308e-06,4.824e-05,4.54e-05,5.144e-05,5.01e-05,4.942e-05,5.264e-05,5.562e-05,4.584e-05,5.674e-05,4.388e-05,1.9094e-05,2.504e-05,2.152e-05,2.096e-05,2.562e-05,2.694e-05,1.6042e-05,2.418e-05,2.272e-05,2.67e-05,3.758e-05,2.974e-05,1.536e-05,6.542e-05,2.894e-06,3.078e-05,6.162e-05,3.862e-05,3.31e-05,7.144e-05
750,1.6312e-05,3.348e-05,2.674e-05,3.784e-05,7.888e-06,1.837e-05,2.306e-05,1.9316e-05,2.848e-06,4.634e-06,5.768e-05,4.6e-05,5.618e-05,4.784e-05,4.864e-05,4.968e-05,5.438e-05,4.792e-05,5.516e-05,4.124e-05,2.02e-05,2.186e-05,1.966e-05,1.9966e-05,2.478e-05,2.574e-05,1.7028e-05,2.46e-05,2.082e-05,2.478e-05,3.556e-05,4.988e-05,2.18e-05,6.456e-05,1.79e-06,3.59e-05,5.09e-05,2.48e-05,3.402e-05,6.332e-05
752,1.8784e-05,2.514e-05,2.76e-05,2.282e-05,3.642e-06,1.339e-05,1.645e-05,1.7486e-05,6.668e-06,1.9004e-06,5.53e-05,4.108e-05,4.916e-05,4.636e-05,5.214e-05,4.28e-05,5.194e-05,5.864e-05,4.634e-05,4.698e-05,1.7736e-05,2.468e-05,2.266e-05,2.288e-05,2.624e-05,2.36e-05,1.6864e-05,2.454e-05,1.8674e-05,2.326e-05,3.314e-05,2.14e-05,1.6676e-05,5.59e-05,0,2.74e-05,4.268e-05,2.252e-05,3.03e-05,6.71e-05
754,5.8e-06,4.026e-05,2.644e-05,1.938e-05,0,1.4524e-05,2.708e-05,2.572e-05,4.744e-06,1.6356e-06,5.264e-05,4.524e-05,5.856e-05,5.158e-05,5.13e-05,3.884e-05,5.146e-05,4.322e-05,5.76e-05,3.7e-05,1.7864e-05,2.608e-05,2.254e-05,2.508e-05,2.756e-05,2.38e-05,1.8398e-05,2.588e-05,2.426e-05,2.732e-05,3.462e-05,1.3066e-05,2.526e-06,7.318e-05,0,2.704e-05,4.47e-05,7.91e-06,2.88e-05,6.018e-05
756,1.7354e-05,4.79e-05,3.152e-05,1.9198e-05,1.527e-05,2.538e-05,3.754e-05,2.354e-05,1.068e-06,3.21e-06,4.99e-05,3.418e-05,4.926e-05,5.156e-05,5.55e-05,4.906e-05,4.678e-05,5.128e-05,5.328e-05,3.282e-05,1.7576e-05,2.43e-05,2.34e-05,2.464e-05,2.21e-05,2.41e-05,2.138e-05,2.538e-05,2.792e-05,2.61e-05,3.67e-05,2.152e-05,0,8.084e-05,0,1.7982e-05,3.032e-05,0,2.834e-05,6.694e-05
758,1.9258e-05,2.914e-05,4.116e-05,8.516e-06,1.7906e-05,2.178e-05,4.094e-05,1.7616e-05,0,2.842e-06,5.456e-05,3.538e-05,4.254e-05,5.388e-05,5.888e-05,4.028e-05,4.888e-05,5.536e-05,4.138e-05,3.582e-05,1.9012e-05,2.664e-05,2.782e-05,2.594e-05,2.374e-05,2.41e-05,2.014e-05,2.91e-05,2.968e-05,2.524e-05,4e-05,2.134e-05,1.2796e-05,7.642e-05,0,1.8528e-05,3.874e-05,1.8702e-05,3.188e-05,5.79e-05
760,7.154e-06,3.854e-05,4.31e-05,2.272e-05,1.8312e-05,3.354e-05,4.362e-05,2.116e-05,0,4.974e-06,6.036e-05,4.04e-05,4.488e-05,5.29e-05,6.922e-05,3.98e-05,4.818e-05,5.316e-05,4.822e-05,2.826e-05,2.24e-05,2.728e-05,3.196e-05,2.632e-05,2.526e-05,2.102e-05,1.9156e-05,2.766e-05,2.584e-05,2.208e-05,4.284e-05,1.5038e-05,2.376e-05,8.906e-05,1.2982e-06,3.204e-05,2.548e-05,2.692e-05,2.726e-05,5.552e-05
762,1.9562e-05,3.304e-05,4.816e-05,1.7708e-05,4.266e-05,3.606e-05,6.424e-05,1.5748e-05,0,1.1702e-05,5.03e-05,3.574e-05,4.08e-05,4.694e-05,7.666e-05,3.8e-05,4.836e-05,5.282e-05,3.524e-05,3.476e-05,2.172e-05,2.932e-05,2.64e-05,2.464e-05,2.058e-05,2.526e-05,2.034e-05,2.738e-05,2.604e-05,2.034e-05,3.024e-05,3.792e-05,2.852e-05,9.92e-05,2.352e-05,2.96e-06,2.988e-05,5.076e-05,3.668e-05,6.234e-05
764,2.82e-05,3.234e-05,5.85e-05,1.1508e-05,2.722e-05,2.862e-05,6.138e-05,1.9046e-05,0,1.2636e-05,5.702e-05,3.336e-05,4.27e-05,4.62e-05,8.544e-05,3.424e-05,5.004e-05,5.872e-05,4.528e-05,3.492e-05,1.8982e-05,2.906e-05,3.254e-05,2.416e-05,2.142e-05,2.506e-05,1.9792e-05,2.968e-05,2.886e-05,2.324e-05,4.732e-05,9.52e-06,2.654e-05,8.222e-05,2.278e-05,1.085e-05,3.766e-05,3.928e-05,4.524e-05,6.75e-05
766,2.316e-05,3.94e-05,7.032e-05,1.7814e-05,5.22e-05,3.452e-05,5.492e-05,1.5696e-05,1.6578e-06,1.9854e-05,5.75e-05,2.968e-05,5.264e-05,4.15e-05,7.29e-05,2.86e-05,5.394e-05,5.878e-05,4.428e-05,4.58e-05,2.02e-05,2.834e-05,3.262e-05,2.358e-05,2.222e-05,2.842e-05,2.304e-05,2.802e-05,3.016e-05,2.746e-05,3.41e-05,2.274e-05,4.278e-05,8.228e-05,2.984e-05,9.61e-06,2.208e-05,2.388e-05,6.552e-05,6.008e-05
768,2.802e-05,4.33e-05,6.842e-05,4.2e-05,8.206e-05,4.956e-05,6.278e-05,6.23e-06,9.1e-06,1.322e-05,6.474e-05,3.068e-05,3.8e-05,5.306e-05,7.28e-05,2.082e-05,4.924e-05,6.912e-05,5.088e-05,4.596e-05,2.436e-05,2.748e-05,3.788e-05,1.994e-05,2.15e-05,2.734e-05,1.9894e-05,3.332e-05,3.792e-05,3.024e-05,5.8e-05,3.962e-05,4.236e-05,8.38e-05,6.204e-05,2.612e-06,2.212e-05,3.866e-05,7.572e-05,7.826e-05
770,4.56e-05,3.672e-05,5.506e-05,2.65e-05,7.086e-05,4.89e-05,6.994e-05,1.0322e-05,2.668e-06,3.808e-05,6.788e-05,3.586e-05,3.088e-05,4.132e-05,7.842e-05,2.754e-05,3.588e-05,6.642e-05,3.482e-05,4.054e-05,1.933e-05,2.982e-05,3.648e-05,2.926e-05,1.7488e-05,2.732e-05,2.964e-05,2.7e-05,3.57e-05,2.274e-05,6.714e-05,1.4592e-05,7.306e-05,9.546e-05,6.132e-05,3.17e-05,4.27e-05,3.718e-05,7.808e-05,7.062e-05
772,3.102e-05,6.492e-05,4.318e-05,3.926e-05,7.92e-05,4.966e-05,8.816e-05,2.294e-05,9.374e-06,2.524e-05,7.028e-05,4.502e-05,4.296e-05,3.59e-05,8.362e-05,2.258e-05,4.71e-05,6.208e-05,3.816e-05,4.564e-05,2.558e-05,2.972e-05,3.248e-05,2.858e-05,1.8688e-05,2.802e-05,3.222e-05,3.06e-05,3.664e-05,2.044e-05,5.792e-05,2.1e-05,8.786e-05,0.00011536,9.936e-05,3.828e-05,3.508e-05,6.844e-05,9.346e-05,5.518e-05
774,4.002e-05,5.254e-05,5.25e-05,5.19e-05,6.85e-05,5.54e-05,6.726e-05,2.272e-05,6.284e-06,2.24e-05,5.99e-05,4.526e-05,4.6e-05,4.276e-05,8.278e-05,3.276e-05,4.4e-05,6.274e-05,3.26e-05,4.912e-05,3.064e-05,2.78e-05,3.162e-05,2.354e-05,2.414e-05,2.246e-05,3.464e-05,3.268e-05,3.824e-05,2.55e-05,6.482e-05,3.118e-05,0.00010918,0.00010298,0.00011708,4.366e-05,3.418e-05,6.272e-05,9.58e-05,5.532e-05
776,6.002e-05,3.838e-05,5.016e-05,5.36e-05,0.00010184,6.168e-05,5.388e-05,2.9e-05,9.368e-06,1.468e-05,4.492e-05,3.734e-05,4.43e-05,3.694e-05,7.694e-05,1.5462e-05,3.658e-05,6.15e-05,4.83e-05,4.322e-05,2.722e-05,2.608e-05,2.9e-05,2.322e-05,1.6522e-05,2.598e-05,2.908e-05,2.978e-05,3.318e-05,2.246e-05,9.602e-05,3.27e-05,0.00010986,7.876e-05,0.00016364,5.06e-05,3.62e-05,7.058e-05,7.944e-05,3.972e-05
778,6.74e-05,3.464e-05,5.016e-05,6.428e-05,7.38e-05,8.078e-05,7.526e-05,2.61e-05,8.988e-06,2.39e-05,6.062e-05,3.35e-05,3.59e-05,3.38e-05,7.562e-05,3.434e-05,3.85e-05,5.778e-05,3.712e-05,4.084e-05,2.576e-05,1.8962e-05,2.51e-05,2.094e-05,2.074e-05,2.628e-05,3.07e-05,3.032e-05,3.208e-05,1.8602e-05,8.946e-05,4.958e-05,0.00011354,0.00011048,0.00014788,6.87e-05,3.356e-05,7.362e-05,0.00010414,8.012e-06
780,6.796e-05,3.994e-05,4.074e-05,7.608e-05,0.00012364,8.094e-05,7.894e-05,3.64e-05,2.09e-05,3.172e-05,5.268e-05,3.66e-05,4.456e-05,3.148e-05,8.628e-05,1.6234e-05,3.586e-05,5.868e-05,4.792e-05,4.624e-05,2.256e-05,2.088e-05,3.352e-05,1.9568e-05,1.542e-05,2.938e-05,3.65e-05,3.226e-05,3.69e-05,2.03e-05,0.00010392,7.31e-05,0.00012194,9.572e-05,0.00014716,8.522e-05,4.23e-05,7.654e-05,0.0001168,4.76e-05
